* Sea-Bird SBE19plus  Data File:
* FileName = C:\DATA\110218_bvr_50_0001.hex
* Software version 2.6.3.104 SB_Terminal.dll
* Temperature SN = 7809
* Conductivity SN = 7809
* System UpLoad Time = Nov 02 2018 17:54:23
* <ApplicationData>
* <Seaterm232>
* <SoftwareVersion>2.6.3.104</SoftwareVersion>
* <BuildDate>30-Jun-2017</BuildDate>
* </Seaterm232>
* </ApplicationData>
* cast   1 02 Nov 2018 17:29:23 samples 1 to 996, avg = 1, stop = mag switch
# nquan = 15
# nvalues = 883                         
# units = specified
# name 0 = depFM: Depth [fresh water, m]
# name 1 = dz/dtM: Descent Rate [m/s]
# name 2 = sbeox0Mg/L: Oxygen, SBE 43 [mg/l]
# name 3 = sbeox0PS: Oxygen, SBE 43 [% saturation]
# name 4 = specc: Specific Conductance [uS/cm]
# name 5 = c0uS/cm: Conductivity [uS/cm]
# name 6 = flECO-AFL: Fluorescence, WET Labs ECO-AFL/FL [mg/m^3]
# name 7 = ph: pH
# name 8 = orp: Oxidation Reduction Potential [mV]
# name 9 = par/sat/log: PAR/Logarithmic, Satlantic
# name 10 = turbWETntu0: Turbidity, WET Labs ECO [NTU]
# name 11 = prdM: Pressure, Strain Gauge [db]
# name 12 = prdE: Pressure, Strain Gauge [psi]
# name 13 = tv290C: Temperature [ITS-90, deg C]
# name 14 = flag:  0.000e+00
# span 0 =     -0.590,     10.386       
# span 1 =     -0.086,      0.201       
# span 2 =    -0.2449,    10.0800       
# span 3 =     -2.189,     95.787       
# span 4 =     30.177,    238.175       
# span 5 =  22.311214, 161.476952       
# span 6 =     0.7243,     5.9217       
# span 7 =      6.214,      7.665       
# span 8 =   139.9108,   311.6050       
# span 9 = 1.2558e-01, 4.9215e+02       
# span 10 =     3.4740,    17.2971      
# span 11 =     -0.589,     10.186      
# span 12 =     -0.854,     14.773      
# span 13 =     8.7708,    13.9864      
# span 14 = 0.0000e+00, 0.0000e+00      
# interval = seconds: 0.25
# start_time = Nov 02 2018 17:29:23 [Instrument's time stamp, header]
# bad_flag = -9.990e-29
# <Sensors count="9" >
#   <sensor Channel="1" >
#     <!-- Count, Temperature -->
#     <TemperatureSensor SensorID="58" >
#       <SerialNumber>7809</SerialNumber>
#       <CalibrationDate>09-Mar-18</CalibrationDate>
#       <A0>1.21093245e-003</A0>
#       <A1>2.84356597e-004</A1>
#       <A2>-1.94507398e-006</A2>
#       <A3>2.12806664e-007</A3>
#       <Slope>1.00000000</Slope>
#       <Offset>0.0000</Offset>
#     </TemperatureSensor>
#   </sensor>
#   <sensor Channel="2" >
#     <!-- Frequency 0, Conductivity -->
#     <ConductivitySensor SensorID="3" >
#       <SerialNumber>7809</SerialNumber>
#       <CalibrationDate>09-Mar-18</CalibrationDate>
#       <UseG_J>1</UseG_J>
#       <!-- Cell const and series R are applicable only for wide range sensors. -->
#       <SeriesR>0.0000</SeriesR>
#       <CellConst>2000.0000</CellConst>
#       <ConductivityType>0</ConductivityType>
#       <Coefficients equation="0" >
#         <A>0.00000000e+000</A>
#         <B>0.00000000e+000</B>
#         <C>0.00000000e+000</C>
#         <D>0.00000000e+000</D>
#         <M>0.0</M>
#         <CPcor>-9.57000000e-008</CPcor>
#       </Coefficients>
#       <Coefficients equation="1" >
#         <G>-1.00672082e+000</G>
#         <H>1.26906489e-001</H>
#         <I>-1.40584351e-004</I>
#         <J>2.47837121e-005</J>
#         <CPcor>-9.57000000e-008</CPcor>
#         <CTcor>3.2500e-006</CTcor>
#         <!-- WBOTC not applicable unless ConductivityType = 1. -->
#         <WBOTC>0.00000000e+000</WBOTC>
#       </Coefficients>
#       <Slope>1.00000000</Slope>
#       <Offset>0.00000</Offset>
#     </ConductivitySensor>
#   </sensor>
#   <sensor Channel="3" >
#     <!-- Count, Pressure, Strain Gauge -->
#     <PressureSensor SensorID="46" >
#       <SerialNumber>7809</SerialNumber>
#       <CalibrationDate>07-Mar-18</CalibrationDate>
#       <PA0>-4.08176359e-002</PA0>
#       <PA1>4.85188419e-004</PA1>
#       <PA2>-3.51168169e-012</PA2>
#       <PTEMPA0>-5.37806900e+001</PTEMPA0>
#       <PTEMPA1>5.36620721e+001</PTEMPA1>
#       <PTEMPA2>4.87214332e-002</PTEMPA2>
#       <PTCA0>5.25213435e+005</PTCA0>
#       <PTCA1>1.79532409e+000</PTCA1>
#       <PTCA2>-2.84353509e-001</PTCA2>
#       <PTCB0>2.51668750e+001</PTCB0>
#       <PTCB1>3.75000000e-004</PTCB1>
#       <PTCB2>0.00000000e+000</PTCB2>
#       <Offset>0.000000</Offset>
#     </PressureSensor>
#   </sensor>
#   <sensor Channel="4" >
#     <!-- A/D voltage 0, pH -->
#     <pH_Sensor SensorID="43" >
#       <SerialNumber>0363</SerialNumber>
#       <CalibrationDate>16-Mar-18</CalibrationDate>
#       <Slope>4.6194</Slope>
#       <Offset>2.5947</Offset>
#     </pH_Sensor>
#   </sensor>
#   <sensor Channel="5" >
#     <!-- A/D voltage 1, Oxidation Reduction Potential -->
#     <OxidationReductionPotentialSensor SensorID="41" >
#       <SerialNumber>0363</SerialNumber>
#       <CalibrationDate>16-Mar-18</CalibrationDate>
#       <B>2.499480</B>
#       <M>-0.496195</M>
#       <Offset>0.0</Offset>
#     </OxidationReductionPotentialSensor>
#   </sensor>
#   <sensor Channel="6" >
#     <!-- A/D voltage 2, Oxygen, SBE 43 -->
#     <OxygenSensor SensorID="38" >
#       <SerialNumber>0434</SerialNumber>
#       <CalibrationDate>13-Mar-18</CalibrationDate>
#       <Use2007Equation>1</Use2007Equation>
#       <CalibrationCoefficients equation="0" >
#         <!-- Coefficients for Owens-Millard equation. -->
#         <Boc>0.0000</Boc>
#         <Soc>0.0000e+000</Soc>
#         <offset>0.0000</offset>
#         <Pcor>0.00e+000</Pcor>
#         <Tcor>0.0000</Tcor>
#         <Tau>0.0</Tau>
#       </CalibrationCoefficients>
#       <CalibrationCoefficients equation="1" >
#         <!-- Coefficients for Sea-Bird equation - SBE calibration in 2007 and later. -->
#         <Soc>4.5718e-001</Soc>
#         <offset>-0.6113</offset>
#         <A>-4.0649e-003</A>
#         <B> 2.0945e-004</B>
#         <C>-3.3182e-006</C>
#         <D0> 2.5826e+000</D0>
#         <D1> 1.92634e-004</D1>
#         <D2>-4.64803e-002</D2>
#         <E> 3.6000e-002</E>
#         <Tau20> 1.2200</Tau20>
#         <H1>-3.3000e-002</H1>
#         <H2> 5.0000e+003</H2>
#         <H3> 1.4500e+003</H3>
#       </CalibrationCoefficients>
#     </OxygenSensor>
#   </sensor>
#   <sensor Channel="7" >
#     <!-- A/D voltage 3, PAR/Logarithmic, Satlantic -->
#     <PARLog_SatlanticSensor SensorID="76" >
#       <SerialNumber>1122</SerialNumber>
#       <CalibrationDate>22-Jun-2017</CalibrationDate>
#       <a0>9.6090e-001</a0>
#       <a1>8.0780e-001</a1>
#       <Im>1.3589e+000</Im>
#       <Multiplier>1.0000e+000</Multiplier>
#     </PARLog_SatlanticSensor>
#   </sensor>
#   <sensor Channel="8" >
#     <!-- A/D voltage 4, Fluorometer, WET Labs ECO-AFL/FL -->
#     <FluoroWetlabECO_AFL_FL_Sensor SensorID="20" >
#       <SerialNumber>FLNTURT-2496</SerialNumber>
#       <CalibrationDate>25-Jan-2017</CalibrationDate>
#       <ScaleFactor>5.30000000e+001</ScaleFactor>
#       <!-- Dark output -->
#       <Vblank>0.0560</Vblank>
#     </FluoroWetlabECO_AFL_FL_Sensor>
#   </sensor>
#   <sensor Channel="9" >
#     <!-- A/D voltage 5, Turbidity Meter, WET Labs, ECO-NTU -->
#     <TurbidityMeter SensorID="67" >
#       <SerialNumber>FLNTURT-2496</SerialNumber>
#       <CalibrationDate>25-Jan-2017</CalibrationDate>
#       <ScaleFactor>176.000000</ScaleFactor>
#       <!-- Dark output -->
#       <DarkVoltage>0.072000</DarkVoltage>
#     </TurbidityMeter>
#   </sensor>
# </Sensors>
# datcnv_date = Nov 02 2018 17:57:54, 7.26.7.114 [datcnv_vars = 14]
# datcnv_in = C:\DATA\110218_bvr_50_0001.hex C:\DATA\SBE19plusV2_7809.xmlcon
# datcnv_skipover = 0
# datcnv_ox_hysteresis_correction = yes
# datcnv_ox_tau_correction = yes
# filter_date = Nov 02 2018 17:58:28, 7.26.7.114
# filter_in = C:\DATA\110218_bvr_50_0001.cnv
# filter_low_pass_tc_A = 0.030
# filter_low_pass_tc_B = 0.150
# filter_low_pass_A_vars = prdM prdE tv290C
# filter_low_pass_B_vars = depFM dz/dtM sbeox0Mg/L sbeox0PS specc c0uS/cm flECO-AFL ph orp par/sat/log turbWETntu0
# alignctd_date = Nov 02 2018 17:58:50, 7.26.7.114
# alignctd_in = C:\DATA\110218_bvr_50_0001.cnv
# alignctd_adv = dz/dtM 1.000, sbeox0Mg/L 1.000, sbeox0PS 1.000, specc 1.000, c0uS/cm 1.000, flECO-AFL 1.000, ph 1.000, orp 1.000, turbWETntu0 1.000                                                                                 
# file_type = ascii
*END*
     -0.590      0.101     9.8879     94.743     30.701  23.595545     0.7243      7.665   280.7891 4.8296e+02    15.2206     -0.589     -0.854    13.7490 0.0000e+00
     -0.558      0.138     9.9132     94.772     30.686  23.521882     0.7529      7.643   283.2132 4.9091e+02    15.5926     -0.552     -0.800    13.6534 0.0000e+00
     -0.508      0.171     9.9395     94.840     30.756  23.521708     0.8065      7.625   291.1946 4.9215e+02    15.4038     -0.500     -0.725    13.5827 0.0000e+00
     -0.450      0.195     9.9709     94.998     30.903  23.593381     1.2808      7.605   295.8985 4.7087e+02    12.4189     -0.444     -0.644    13.5332 0.0000e+00
     -0.389      0.201    10.0046     95.217     31.152  23.753561     2.1313      7.584   296.2072 4.3231e+02     6.8774     -0.379     -0.550    13.4273 0.0000e+00
     -0.330      0.188    10.0364     95.444     31.336  23.871240     2.5896      7.563   295.6151 3.8531e+02     3.8235     -0.322     -0.467    13.3166 0.0000e+00
     -0.277      0.163    10.0630     95.644     31.359  23.873445     2.6308      7.543   295.0202 3.0648e+02     3.5092     -0.268     -0.390    13.2293 0.0000e+00
     -0.235      0.133    10.0800     95.787     31.327  23.843680     2.6754      7.515   294.6074 2.2301e+02     3.4740     -0.221     -0.321    13.1631 0.0000e+00
     -0.211      0.103    10.0706     95.711     31.219  23.765305     2.7514      7.484   293.6357 2.0225e+02     3.5205     -0.202     -0.293    13.1180 0.0000e+00
     -0.199      0.074    10.0042     95.091     31.029  23.624165     2.7882      7.455   290.4991 2.0673e+02     3.5825     -0.198     -0.288    13.0835 0.0000e+00
     -0.187      0.052     9.8953     94.046     30.915  23.533884     2.7895      7.428   287.8288 1.8860e+02     3.5834     -0.184     -0.267    13.0551 0.0000e+00
     -0.174      0.037     9.7848     92.973     30.878  23.499046     2.8215      7.405   287.3331 1.7703e+02     3.5618     -0.166     -0.241    13.0456 0.0000e+00
     -0.168      0.028     9.6531     91.694     30.833  23.456875     2.8816      7.388   286.5697 1.7594e+02     3.5647     -0.163     -0.237    13.0594 0.0000e+00
     -0.165      0.022     9.4720     89.940     30.778  23.404896     2.9087      7.372   286.4285 1.7053e+02     3.5577     -0.163     -0.237    13.0703 0.0000e+00
     -0.160      0.014     9.2641     87.937     30.755  23.378461     2.9022      7.354   287.0889 1.6466e+02     3.5086     -0.157     -0.226    13.0606 0.0000e+00
     -0.155      0.008     9.0614     85.994     30.780  23.391176     2.9039      7.337   289.3061 1.5911e+02     3.4901     -0.150     -0.218    13.0486 0.0000e+00
     -0.153      0.005     8.8776     84.243     30.836  23.431649     2.9194      7.323   291.7276 1.5545e+02     3.5476     -0.149     -0.216    13.0364 0.0000e+00
     -0.155      0.003     8.7144     82.697     30.908  23.486900     2.9245      7.312   290.7266 1.5564e+02     3.5926     -0.151     -0.219    13.0182 0.0000e+00
     -0.157      0.002     8.5641     81.272     30.992  23.551328     2.9198      7.302   288.9044 1.5629e+02     3.6073     -0.154     -0.224    13.0019 0.0000e+00
     -0.157      0.002     8.4255     79.950     31.027  23.575788     2.8987      7.293   289.7424 1.5758e+02     3.6033     -0.155     -0.224    12.9914 0.0000e+00
     -0.156      0.003     8.3115     78.860     30.969  23.528692     2.8535      7.284   290.8783 1.6025e+02     3.5748     -0.153     -0.221    12.9894 0.0000e+00
     -0.154      0.005     8.2238     78.020     30.922  23.489782     2.8330      7.276   288.9585 1.5982e+02     3.5674     -0.150     -0.218    12.9929 0.0000e+00
     -0.152      0.006     8.1488     77.303     30.920  23.486244     2.8438      7.271   286.8345 1.5612e+02     3.5750     -0.148     -0.215    12.9936 0.0000e+00
     -0.150      0.006     8.0765     76.614     30.921  23.485924     2.8558      7.265   287.9988 1.5274e+02     3.5745     -0.147     -0.213    12.9901 0.0000e+00
     -0.148      0.006     8.0056     75.940     30.921  23.485905     2.9047      7.260   288.0649 1.5252e+02     3.5615     -0.145     -0.211    12.9838 0.0000e+00
     -0.148      0.007     7.9348     75.272     30.919  23.486007     2.9934      7.255   286.4295 1.5634e+02     3.5707     -0.145     -0.210    12.9789 0.0000e+00
     -0.147      0.008     7.8588     74.565     30.914  23.487162     3.0454      7.249   285.2601 1.5863e+02     3.5946     -0.145     -0.210    12.9759 0.0000e+00
     -0.146      0.012     7.7783     73.814     30.924  23.499869     3.0466      7.243   283.3908 1.5688e+02     3.5760     -0.143     -0.208    12.9744 0.0000e+00
     -0.142      0.017     7.7019     73.094     30.939  23.512679     3.0352      7.238   282.1539 1.5487e+02     3.5585     -0.140     -0.204    12.9730 0.0000e+00
     -0.137      0.023     7.6420     72.523     30.944  23.515082     3.0369      7.231   280.5438 1.5312e+02     3.5668     -0.135     -0.196    12.9732 0.0000e+00
     -0.131      0.030     7.6106     72.231     30.959  23.528925     3.0488      7.223   279.6678 1.5047e+02     3.5538     -0.129     -0.187    12.9839 0.0000e+00
     -0.124      0.035     7.6115     72.253     30.984  23.553078     3.0498      7.219   281.3718 1.4723e+02     3.5242     -0.123     -0.179    12.9956 0.0000e+00
     -0.113      0.040     7.6396     72.524     30.981  23.553173     3.0411      7.216   282.1308 1.4205e+02     3.5147     -0.112     -0.163    12.9973 0.0000e+00
     -0.098      0.043     7.6891     72.984     30.956  23.530078     3.0350      7.206   280.6719 1.3518e+02     3.5300     -0.096     -0.139    12.9909 0.0000e+00
     -0.086      0.042     7.7491     73.547     30.957  23.527779     3.0390      7.181   279.3053 1.2995e+02     3.5564     -0.084     -0.121    12.9926 0.0000e+00
     -0.076      0.037     7.8062     74.094     30.951  23.525374     3.0447      7.156   278.6848 1.2777e+02     3.5590     -0.076     -0.109    13.0094 0.0000e+00
     -0.065      0.027     7.8490     74.502     30.918  23.500999     3.0120      7.144   278.5045 1.2670e+02     3.5311     -0.065     -0.093    13.0139 0.0000e+00
     -0.054      0.012     7.8690     74.675     30.908  23.487015     2.9466      7.138   278.8464 1.2691e+02     3.5246     -0.051     -0.073    13.0019 0.0000e+00
     -0.050     -0.007     7.8619     74.584     30.914  23.483259     2.9161      7.135   279.6353 1.3162e+02     3.5721     -0.044     -0.064    12.9923 0.0000e+00
     -0.056     -0.026     7.8295     74.259     30.887  23.455569     2.9194      7.134   279.6106 1.3668e+02     3.6165     -0.054     -0.079    13.0016 0.0000e+00
     -0.067     -0.041     7.7807     73.781     30.829  23.406155     2.9311      7.134   278.2043 1.3884e+02     3.6035     -0.066     -0.096    13.0098 0.0000e+00
     -0.083     -0.047     7.7265     73.265     30.814  23.393676     2.9560      7.133   277.4300 1.4257e+02     3.5684     -0.077     -0.112    12.9925 0.0000e+00
     -0.105     -0.046     7.6773     72.815     30.855  23.431662     2.9719      7.133   279.7134 1.4998e+02     3.5577     -0.103     -0.150    12.9756 0.0000e+00
     -0.125     -0.037     7.6405     72.490     30.913  23.484529     2.9667      7.131   284.3034 1.5568e+02     3.5652     -0.128     -0.186    12.9680 0.0000e+00
     -0.133     -0.024     7.6207     72.317     30.959  23.525012     2.9577      7.126   286.9818 1.5507e+02     3.5367     -0.135     -0.195    12.9554 0.0000e+00
     -0.131     -0.012     7.6172     72.290     30.975  23.540235     2.9557      7.123   287.3177 1.5184e+02     3.4881     -0.128     -0.185    12.9502 0.0000e+00
     -0.126     -0.002     7.6239     72.357     30.975  23.541620     2.9609      7.124   287.2467 1.4750e+02     3.4965     -0.123     -0.178    12.9664 0.0000e+00
     -0.122      0.003     7.6378     72.491     30.975  23.541756     2.9650      7.129   287.0698 1.4279e+02     3.5464     -0.119     -0.173    12.9856 0.0000e+00
     -0.120      0.002     7.6573     72.680     30.973  23.541883     2.9593      7.131   287.0718 1.3970e+02     3.5731     -0.116     -0.168    12.9925 0.0000e+00
     -0.121     -0.001     7.6773     72.880     30.970  23.543154     2.9662      7.130   287.0125 1.4003e+02     3.5746     -0.117     -0.170    12.9951 0.0000e+00
     -0.124     -0.004     7.6915     73.028     30.981  23.557119     3.0023      7.130   286.6975 1.4403e+02     3.5651     -0.122     -0.178    12.9981 0.0000e+00
     -0.127     -0.004     7.6961     73.084     31.010  23.583772     3.0370      7.132   286.4470 1.4627e+02     3.5501     -0.125     -0.182    12.9986 0.0000e+00
     -0.129     -0.002     7.6876     73.012     31.043  23.611474     3.0544      7.136   286.3923 1.4657e+02     3.5458     -0.125     -0.182    12.9987 0.0000e+00
     -0.129      0.001     7.6651     72.807     31.073  23.638129     3.0847      7.140   286.3802 1.4733e+02     3.5434     -0.127     -0.184    13.0053 0.0000e+00
     -0.129      0.005     7.6331     72.511     31.087  23.652105     3.1281      7.142   286.3865 1.4699e+02     3.5513     -0.128     -0.186    13.0162 0.0000e+00
     -0.127      0.008     7.5954     72.160     31.086  23.653488     3.1564      7.141   286.4681 1.4731e+02     3.5807     -0.125     -0.181    13.0236 0.0000e+00
     -0.122      0.010     7.5551     71.780     31.086  23.654863     3.1693      7.138   286.5065 1.4700e+02     3.5931     -0.119     -0.173    13.0280 0.0000e+00
     -0.118      0.010     7.5159     71.410     31.102  23.668725     3.1544      7.137   286.4206 1.4515e+02     3.5796     -0.115     -0.167    13.0326 0.0000e+00
     -0.115      0.009     7.4817     71.086     31.135  23.694120     3.1152      7.137   286.3769 1.4422e+02     3.5700     -0.111     -0.163    13.0387 0.0000e+00
     -0.113      0.007     7.4568     70.851     31.153  23.707972     3.0988      7.137   286.4082 1.4344e+02     3.5681     -0.109     -0.158    13.0431 0.0000e+00
     -0.113      0.005     7.4418     70.713     31.152  23.709232     3.1120      7.139   286.2827 1.4309e+02     3.5572     -0.110     -0.160    13.0442 0.0000e+00
     -0.113      0.005     7.4323     70.629     31.150  23.709357     3.1195      7.141   285.9769 1.4176e+02     3.5600     -0.112     -0.163    13.0464 0.0000e+00
     -0.112      0.006     7.4228     70.541     31.149  23.709484     3.1161      7.143   285.8085 1.3978e+02     3.5720     -0.110     -0.159    13.0470 0.0000e+00
     -0.111      0.007     7.4069     70.391     31.149  23.710760     3.1077      7.144   285.8816 1.3818e+02     3.5500     -0.108     -0.157    13.0464 0.0000e+00
     -0.109      0.009     7.3877     70.214     31.165  23.724789     3.0998      7.143   286.0863 1.3614e+02     3.5373     -0.108     -0.156    13.0503 0.0000e+00
     -0.106      0.010     7.3685     70.041     31.196  23.752134     3.0949      7.141   286.3043 1.3429e+02     3.5401     -0.104     -0.151    13.0552 0.0000e+00
     -0.102      0.010     7.3385     69.767     31.236  23.787451     3.0576      7.138   286.2812 1.3199e+02     3.5234     -0.100     -0.145    13.0561 0.0000e+00
     -0.099      0.009     7.2925     69.348     31.288  23.834367     2.9985      7.136   286.0646 1.2939e+02     3.5193     -0.096     -0.140    13.0560 0.0000e+00
     -0.097      0.008     7.2388     68.861     31.329  23.874995     2.9767      7.135   285.9227 1.2732e+02     3.5201     -0.094     -0.137    13.0591 0.0000e+00
     -0.095      0.005     7.1823     68.350     31.345  23.897776     2.9779      7.135   285.7699 1.2605e+02     3.5335     -0.093     -0.135    13.0647 0.0000e+00
     -0.094      0.003     7.1228     67.805     31.361  23.919356     2.9583      7.136   285.4214 1.2657e+02     3.5597     -0.092     -0.134    13.0720 0.0000e+00
     -0.094      0.002     7.0609     67.234     31.386  23.945467     2.9234      7.138   285.1511 1.2879e+02     3.5308     -0.092     -0.134    13.0832 0.0000e+00
     -0.094      0.002     6.9998     66.667     31.396  23.959549     2.9051      7.138   285.2550 1.2963e+02     3.4891     -0.092     -0.134    13.0999 0.0000e+00
     -0.094      0.001     6.9427     66.136     31.393  23.962645     2.9118      7.137   284.5275 1.2936e+02     3.5138     -0.092     -0.133    13.1181 0.0000e+00
     -0.093     -0.002     6.8906     65.647     31.415  23.982907     2.9489      7.133   282.2053 1.3029e+02     3.5547     -0.092     -0.133    13.1333 0.0000e+00
     -0.092     -0.008     6.8409     65.181     31.451  24.014084     3.0044      7.128   280.2353 1.3143e+02     3.5563     -0.091     -0.132    13.1444 0.0000e+00
     -0.092     -0.019     6.7885     64.728     31.436  24.022162     3.0314      7.122   279.4658 1.3103e+02     3.5332     -0.090     -0.130    13.1548 0.0000e+00
     -0.093     -0.036     6.7327     64.318     31.358  24.017107     3.0376      7.112   280.1279 1.3188e+02     3.5195     -0.090     -0.130    13.1624 0.0000e+00
     -0.102     -0.056     6.6776     63.969     31.256  24.016524     3.0056      7.102   282.3897 1.4391e+02     3.5425     -0.095     -0.139    13.1710 0.0000e+00
     -0.119     -0.075     6.6305     63.683     31.160  24.015208     2.9378      7.096   283.8405 1.6761e+02     3.5676     -0.114     -0.165    13.1657 0.0000e+00
     -0.144     -0.086     6.6018     63.512     31.082  24.001274     2.9068      7.091   282.7847 1.9834e+02     3.5793     -0.138     -0.200    13.1797 0.0000e+00
     -0.177     -0.086     6.5962     63.488     31.030  23.975078     2.9064      7.086   280.2933 2.2902e+02     3.5922     -0.173     -0.250    13.2762 0.0000e+00
     -0.212     -0.075     6.6143     63.639     31.015  23.952434     2.8780      7.080   278.6686 2.4576e+02     3.5702     -0.213     -0.310    13.4193 0.0000e+00
     -0.236     -0.053     6.6588     64.011     31.002  23.917942     2.8210      7.077   278.3694 2.5001e+02     3.5273     -0.238     -0.345    13.5503 0.0000e+00
     -0.245     -0.023     6.7281     64.597     30.992  23.875448     2.7870      7.079   278.4828 2.4932e+02     3.5008     -0.244     -0.353    13.6267 0.0000e+00
     -0.241      0.010     6.8145     65.336     31.052  23.883008     2.7793      7.080   278.5773 2.5017e+02     3.4945     -0.238     -0.345    13.6423 0.0000e+00
     -0.231      0.035     6.9042     66.126     31.172  23.945820     2.7828      7.079   278.4792 2.3494e+02     3.5119     -0.228     -0.330    13.6174 0.0000e+00
     -0.215      0.047     6.9881     66.880     31.270  23.999992     2.8297      7.077   278.3284 2.1223e+02     3.5284     -0.215     -0.311    13.5789 0.0000e+00
     -0.192      0.047     7.0621     67.540     31.336  24.030076     2.9055      7.077   278.0451 2.1706e+02     3.5410     -0.188     -0.273    13.5219 0.0000e+00
     -0.172      0.037     7.1159     68.044     31.375  24.055596     2.9453      7.078   277.8068 2.1765e+02     3.5426     -0.164     -0.239    13.4456 0.0000e+00
     -0.161      0.022     7.1427     68.365     31.338  24.054594     2.9529      7.081   277.8563 2.0500e+02     3.5175     -0.154     -0.225    13.3979 0.0000e+00
     -0.161      0.006     7.1479     68.496     31.247  24.017988     2.9144      7.084   277.9550 2.0109e+02     3.5125     -0.155     -0.225    13.3782 0.0000e+00
     -0.169     -0.007     7.1414     68.466     31.199  23.993968     2.8204      7.087   278.0537 1.9859e+02     3.5420     -0.165     -0.239    13.3336 0.0000e+00
     -0.180     -0.013     7.1291     68.346     31.232  24.018124     2.7626      7.089   278.1900 2.0844e+02     3.5697     -0.177     -0.257    13.3052 0.0000e+00
     -0.189     -0.013     7.1113     68.181     31.278  24.056112     2.7666      7.091   278.1410 2.2551e+02     3.5727     -0.187     -0.271    13.3725 0.0000e+00
     -0.191     -0.009     7.0888     67.987     31.287  24.072357     2.7951      7.090   277.9763 2.2214e+02     3.5472     -0.190     -0.276    13.4489 0.0000e+00
     -0.187     -0.004     7.0655     67.791     31.292  24.087570     2.8321      7.088   278.0060 2.1470e+02     3.5359     -0.184     -0.267    13.4582 0.0000e+00
     -0.182      0.001     7.0425     67.603     31.307  24.113086     2.8548      7.086   278.1560 2.2154e+02     3.5587     -0.176     -0.256    13.4453 0.0000e+00
     -0.181      0.003     7.0132     67.371     31.298  24.126937     2.8585      7.084   278.1548 2.2922e+02     3.5791     -0.177     -0.256    13.4460 0.0000e+00
     -0.184      0.002     6.9757     67.073     31.265  24.128090     2.8498      7.083   278.0780 2.2651e+02     3.5986     -0.181     -0.262    13.4670 0.0000e+00
     -0.185     -0.001     6.9356     66.740     31.235  24.127057     2.8423      7.083   278.0877 2.1576e+02     3.6111     -0.182     -0.264    13.4875 0.0000e+00
     -0.184     -0.002     6.8954     66.382     31.203  24.114473     2.8498      7.084   278.1862 2.0665e+02     3.5776     -0.180     -0.261    13.5014 0.0000e+00
     -0.183     -0.001     6.8515     65.966     31.184  24.102929     2.8663      7.083   278.3223 2.0487e+02     3.5298     -0.179     -0.260    13.5370 0.0000e+00
     -0.185      0.001     6.8029     65.502     31.197  24.114464     2.9046      7.083   278.4422 2.0968e+02     3.5220     -0.181     -0.263    13.5867 0.0000e+00
     -0.186      0.001     6.7553     65.060     31.203  24.126961     2.9542      7.083   278.4319 2.1171e+02     3.5437     -0.183     -0.266    13.6249 0.0000e+00
     -0.185      0.001     6.7099     64.651     31.188  24.127064     2.9697      7.083   278.4563 2.0871e+02     3.5484     -0.182     -0.264    13.6444 0.0000e+00
     -0.182      0.001     6.6657     64.247     31.161  24.115719     2.9631      7.083   278.7373 2.0730e+02     3.5176     -0.179     -0.258    13.6437 0.0000e+00
     -0.182      0.002     6.6241     63.859     31.155  24.116787     2.9662      7.082   278.9033 2.0751e+02     3.5070     -0.178     -0.258    13.6397 0.0000e+00
     -0.183      0.002     6.5856     63.494     31.182  24.139978     2.9713      7.081   278.8288 2.0580e+02     3.5428     -0.180     -0.261    13.6538 0.0000e+00
     -0.184      0.001     6.5489     63.144     31.182  24.142172     2.9698      7.081   278.9553 2.0153e+02     3.5841     -0.181     -0.263    13.6783 0.0000e+00
     -0.183      0.001     6.5131     62.803     31.182  24.143317     2.9662      7.082   281.2069 2.0329e+02     3.5785     -0.180     -0.262    13.6952 0.0000e+00
     -0.182      0.001     6.4789     62.478     31.192  24.153819     2.9639      7.083   285.4037 2.1363e+02     3.5360     -0.178     -0.258    13.7033 0.0000e+00
     -0.182      0.001     6.4458     62.161     31.176  24.142181     2.9970      7.083   287.7111 2.1806e+02     3.5289     -0.177     -0.257    13.7060 0.0000e+00
     -0.182      0.001     6.4124     61.837     31.161  24.129580     3.0637      7.082   287.7675 2.0923e+02     3.5537     -0.179     -0.259    13.7076 0.0000e+00
     -0.182      0.000     6.3805     61.526     31.161  24.128435     3.0990      7.080   287.5481 2.0133e+02     3.5607     -0.179     -0.260    13.7111 0.0000e+00
     -0.182      0.000     6.3525     61.252     31.163  24.128331     3.1028      7.080   287.4677 2.0307e+02     3.5524     -0.179     -0.259    13.7151 0.0000e+00
     -0.182      0.001     6.3281     61.013     31.165  24.128323     3.1185      7.080   287.3972 2.0506e+02     3.5456     -0.178     -0.258    13.7166 0.0000e+00
     -0.182      0.001     6.3042     60.778     31.168  24.128333     3.1416      7.080   287.2125 2.0141e+02     3.5394     -0.179     -0.259    13.7148 0.0000e+00
     -0.182      0.001     6.2796     60.536     31.171  24.128457     3.1530      7.080   286.8695 1.9700e+02     3.5383     -0.178     -0.259    13.7123 0.0000e+00
     -0.181      0.002     6.2572     60.314     31.177  24.129820     3.1550      7.080   286.4325 1.9960e+02     3.5321     -0.178     -0.258    13.7102 0.0000e+00
     -0.180      0.003     6.2387     60.126     31.202  24.144807     3.1461      7.079   284.9415 2.0473e+02     3.5247     -0.177     -0.256    13.7072 0.0000e+00
     -0.180      0.003     6.2234     59.968     31.257  24.182692     3.1286      7.077   282.0917 2.0351e+02     3.5403     -0.176     -0.256    13.7039 0.0000e+00
     -0.179     -0.002     6.2085     59.821     31.291  24.206942     3.1089      7.074   280.1962 1.9544e+02     3.5689     -0.176     -0.256    13.7004 0.0000e+00
     -0.177     -0.009     6.1899     59.657     31.252  24.184053     3.0922      7.072   279.6607 1.9289e+02     3.5656     -0.173     -0.252    13.6967 0.0000e+00
     -0.175     -0.017     6.1674     59.487     31.192  24.159904     3.0830      7.071   279.4892 2.0434e+02     3.5301     -0.170     -0.245    13.6886 0.0000e+00
     -0.180     -0.022     6.1456     59.337     31.167  24.168935     3.0616      7.070   279.6710 2.1519e+02     3.5367     -0.173     -0.250    13.6784 0.0000e+00
     -0.192     -0.023     6.1302     59.222     31.143  24.166311     3.0181      7.069   279.7079 2.2600e+02     3.5851     -0.188     -0.273    13.6737 0.0000e+00
     -0.207     -0.023     6.1221     59.142     31.094  24.128191     2.9788      7.067   279.4193 2.4629e+02     3.5953     -0.206     -0.298    13.6768 0.0000e+00
     -0.215     -0.018     6.1155     59.058     31.057  24.088956     2.9629      7.066   279.2785 2.6194e+02     3.5689     -0.214     -0.310    13.7173 0.0000e+00
     -0.215     -0.009     6.1103     58.973     31.057  24.072836     3.0100      7.066   279.2970 2.6480e+02     3.5707     -0.212     -0.307    13.7814 0.0000e+00
     -0.213      0.001     6.1114     58.939     31.067  24.060247     3.1085      7.065   279.2982 2.6034e+02     3.5872     -0.208     -0.301    13.8064 0.0000e+00
     -0.211      0.010     6.1168     58.943     31.102  24.063692     3.1600      7.063   279.4655 2.4484e+02     3.5848     -0.208     -0.301    13.7975 0.0000e+00
     -0.207      0.014     6.1223     58.953     31.194  24.114462     3.1650      7.059   279.6850 2.3044e+02     3.5724     -0.204     -0.296    13.7834 0.0000e+00
     -0.202      0.012     6.1268     58.982     31.270  24.166175     3.2055      7.053   279.6286 2.3461e+02     3.5598     -0.199     -0.287    13.7556 0.0000e+00
     -0.195      0.005     6.1293     59.036     31.271  24.181035     3.2729      7.048   279.4716 2.3854e+02     3.5543     -0.192     -0.278    13.7207 0.0000e+00
     -0.190     -0.003     6.1286     59.099     31.210  24.167179     3.2998      7.044   279.5943 2.3315e+02     3.5356     -0.183     -0.266    13.6804 0.0000e+00
     -0.191     -0.011     6.1288     59.170     31.114  24.125664     3.2913      7.041   280.8536 2.4108e+02     3.5176     -0.184     -0.267    13.6417 0.0000e+00
     -0.200     -0.016     6.1336     59.247     31.011  24.060047     3.2258      7.041   282.9963 2.6851e+02     3.5499     -0.195     -0.283    13.6262 0.0000e+00
     -0.212     -0.015     6.1442     59.331     30.956  24.008698     3.1052      7.042   284.7661 2.8872e+02     3.5904     -0.209     -0.304    13.6452 0.0000e+00
     -0.221     -0.009     6.1642     59.471     30.993  24.012698     3.0458      7.039   286.2495 2.8613e+02     3.5808     -0.219     -0.318    13.7145 0.0000e+00
     -0.225      0.001     6.1963     59.726     31.067  24.044897     3.0508      7.036   286.9935 2.7403e+02     3.5555     -0.223     -0.324    13.7802 0.0000e+00
     -0.220      0.009     6.2393     60.102     31.137  24.080538     3.0634      7.036   287.0513 2.5273e+02     3.5281     -0.220     -0.319    13.8029 0.0000e+00
     -0.208      0.014     6.2905     60.560     31.217  24.126176     3.0876      7.036   287.2064 2.2304e+02     3.5247     -0.204     -0.296    13.7889 0.0000e+00
     -0.197      0.013     6.3440     61.065     31.257  24.152265     3.1048      7.035   287.2337 2.0070e+02     3.5445     -0.190     -0.276    13.7334 0.0000e+00
     -0.193      0.008     6.3925     61.578     31.217  24.142021     3.1058      7.035   286.9514 1.8958e+02     3.5244     -0.187     -0.271    13.6858 0.0000e+00
     -0.195      0.000     6.4345     62.054     31.158  24.129318     3.1098      7.036   285.2549 1.9183e+02     3.4948     -0.189     -0.275    13.6698 0.0000e+00
     -0.200     -0.005     6.4724     62.470     31.124  24.125695     3.1434      7.038   282.3815 2.0061e+02     3.4920     -0.195     -0.283    13.6344 0.0000e+00
     -0.206     -0.004     6.5064     62.812     31.080  24.098239     3.1993      7.039   280.8601 2.0453e+02     3.4910     -0.203     -0.294    13.6099 0.0000e+00
     -0.211      0.005     6.5353     63.078     31.027  24.051312     3.2340      7.037   280.7116 2.0293e+02     3.4821     -0.208     -0.303    13.6578 0.0000e+00
     -0.211      0.016     6.5589     63.289     31.056  24.066195     3.2420      7.031   280.6725 2.0296e+02     3.4759     -0.209     -0.303    13.7267 0.0000e+00
     -0.205      0.024     6.5777     63.469     31.166  24.151197     3.2684      7.026   280.5588 2.0482e+02     3.5079     -0.204     -0.296    13.7636 0.0000e+00
     -0.191      0.024     6.5910     63.637     31.194  24.190232     3.3234      7.024   280.3699 1.9496e+02     3.5632     -0.190     -0.276    13.7722 0.0000e+00
     -0.173      0.019     6.5985     63.798     31.102  24.157263     3.3558      7.024   280.2819 1.7775e+02     3.5642     -0.168     -0.244    13.7565 0.0000e+00
     -0.162      0.012     6.6049     63.959     31.014  24.133548     3.3568      7.024   280.2685 1.6824e+02     3.5206     -0.152     -0.221    13.7380 0.0000e+00
     -0.167      0.004     6.6217     64.189     31.007  24.157491     3.3073      7.021   280.3805 1.6958e+02     3.4943     -0.159     -0.230    13.7339 0.0000e+00
     -0.180     -0.005     6.6570     64.563     31.035  24.192839     3.2171      7.018   281.9801 1.7140e+02     3.4900     -0.181     -0.261    13.7535 0.0000e+00
     -0.188     -0.010     6.7120     65.108     31.011  24.180026     3.1764      7.018   283.5194 1.6855e+02     3.4994     -0.188     -0.273    13.8288 0.0000e+00
     -0.187     -0.009     6.7842     65.810     30.946  24.129559     3.1820      7.022   282.1290 1.6762e+02     3.5161     -0.182     -0.264    13.9175 0.0000e+00
     -0.185     -0.003     6.8657     66.590     30.902  24.090552     3.2027      7.026   280.7419 1.6677e+02     3.5392     -0.180     -0.261    13.9608 0.0000e+00
     -0.185      0.004     6.9452     67.342     30.911  24.089313     3.2334      7.028   280.8588 1.6686e+02     3.5348     -0.182     -0.263    13.9770 0.0000e+00
     -0.185      0.009     7.0129     67.979     30.954  24.114576     3.2407      7.029   280.7020 1.7121e+02     3.5235     -0.182     -0.264    13.9851 0.0000e+00
     -0.183      0.010     7.0607     68.429     30.995  24.142041     3.2353      7.030   280.4806 1.7461e+02     3.5556     -0.180     -0.261    13.9864 0.0000e+00
     -0.178      0.010     7.0827     68.638     31.030  24.167423     3.2051      7.030   280.4194 1.7216e+02     3.5569     -0.175     -0.253    13.9789 0.0000e+00
     -0.172      0.006     7.0757     68.572     31.029  24.167527     3.1331      7.027   280.2201 1.6426e+02     3.5083     -0.168     -0.244    13.9631 0.0000e+00
     -0.167      0.000     7.0440     68.271     30.995  24.143296     3.0907      7.023   279.8776 1.6431e+02     3.4869     -0.162     -0.237    13.9477 0.0000e+00
     -0.167     -0.007     6.9971     67.826     30.971  24.128396     3.0971      7.022   279.4625 1.8182e+02     3.5109     -0.160     -0.233    13.9387 0.0000e+00
     -0.172     -0.013     6.9430     67.316     30.945  24.114353     3.1003      7.022   279.1587 2.0082e+02     3.5248     -0.168     -0.243    13.9365 0.0000e+00
     -0.181     -0.013     6.8896     66.814     30.918  24.100483     3.0931      7.020   279.1295 2.1981e+02     3.5635     -0.178     -0.258    13.9401 0.0000e+00
     -0.188     -0.006     6.8421     66.361     30.898  24.087680     3.0930      7.015   279.0240 2.5111e+02     3.6432     -0.184     -0.266    13.9433 0.0000e+00
     -0.194      0.011     6.8016     65.954     30.823  24.023053     3.0976      7.008   278.5710 2.7896e+02     3.6646     -0.192     -0.278    13.9480 0.0000e+00
     -0.194      0.041     6.7708     65.585     30.692  23.890454     3.1028      7.000   278.1268 2.8572e+02     3.6384     -0.196     -0.284    13.9589 0.0000e+00
     -0.184      0.076     6.7528     65.252     30.603  23.754140     3.1292      6.995   277.9538 2.6714e+02     3.6320     -0.182     -0.264    13.9742 0.0000e+00
     -0.163      0.108     6.7459     64.969     30.663  23.708037     3.1872      6.993   278.0283 2.3808e+02     3.6782     -0.166     -0.241    13.9792 0.0000e+00
     -0.126      0.130     6.7450     64.750     30.870  23.777328     3.2335      6.991   278.1676 2.1567e+02     3.7706     -0.132     -0.193    13.9779 0.0000e+00
     -0.073      0.138     6.7476     64.605     31.116  23.893472     3.2393      6.989   278.0888 1.9487e+02     3.8032     -0.070     -0.102    13.9443 0.0000e+00
     -0.020      0.130     6.7500     64.530     31.270  23.969481     3.2020      6.991   277.8507 1.7546e+02     3.7061     -0.013     -0.019    13.8236 0.0000e+00
      0.019      0.110     6.7478     64.523     31.051  23.807474     3.1408      6.996   277.6973 1.5995e+02     3.5724      0.025      0.035    13.6494 0.0000e+00
      0.040      0.083     6.7454     64.538     30.492  23.394846     3.1060      7.001   277.6969 1.4743e+02     3.5286      0.044      0.063    13.5008 0.0000e+00
      0.048      0.056     6.7479     64.453     30.177  23.107052     3.1030      7.004   277.8455 1.3808e+02     3.5438      0.048      0.071    13.3789 0.0000e+00
      0.049      0.035     6.7673     64.387     30.250  23.057618     3.1235      7.005   278.1180 1.2948e+02     3.5118      0.049      0.070    13.2848 0.0000e+00
      0.051      0.021     6.8365     64.807     30.371  23.050951     3.1597      7.006   278.3235 1.2137e+02     3.4773      0.047      0.068    13.3168 0.0000e+00
      0.058      0.015     6.9851     66.070     30.418  23.026328     3.1736      7.006   278.5250 1.1597e+02     3.4933      0.056      0.081    13.4112 0.0000e+00
      0.066      0.016     7.2140     68.157     30.443  23.013778     3.1622      7.005   278.7475 1.1526e+02     3.5225      0.067      0.099    13.3317 0.0000e+00
      0.069      0.022     7.5034     70.851     30.480  23.026139     3.1418      7.004   278.8616 1.1856e+02     3.5557      0.069      0.101    13.0939 0.0000e+00
      0.067      0.029     7.8222     73.839     30.521  23.048808     3.1199      7.003   279.1310 1.2264e+02     3.5894      0.064      0.093    12.9164 0.0000e+00
      0.069      0.036     8.1352     76.779     30.508  23.033916     3.1094      7.002   279.5095 1.2368e+02     3.5939      0.063      0.091    12.8317 0.0000e+00
      0.082      0.043     8.4148     79.406     30.433  22.973046     3.1062      7.000   279.8240 1.2123e+02     3.5795      0.079      0.113    12.7863 0.0000e+00
      0.102      0.051     8.6335     81.460     30.404  22.947674     3.1087      6.999   280.1800 1.1758e+02     3.5678      0.102      0.147    12.7664 0.0000e+00
      0.120      0.056     8.7700     82.740     30.451  22.981071     3.1117      6.999   280.4589 1.1296e+02     3.5434      0.119      0.173    12.7543 0.0000e+00
      0.133      0.057     8.8259     83.263     30.473  22.995943     3.1064      6.999   280.6145 1.0755e+02     3.5296      0.131      0.189    12.7470 0.0000e+00
      0.146      0.052     8.8264     83.264     30.481  23.000521     3.1001      7.000   280.7713 1.0220e+02     3.5224      0.143      0.207    12.7401 0.0000e+00
      0.159      0.047     8.7978     82.990     30.530  23.036415     3.1090      7.002   281.0635 9.7768e+01     3.5170      0.157      0.228    12.7350 0.0000e+00
      0.172      0.042     8.7533     82.567     30.548  23.049026     3.1489      7.004   281.4803 9.4387e+01     3.5260      0.170      0.246    12.7311 0.0000e+00
      0.182      0.038     8.6981     82.044     30.519  23.026039     3.1967      7.005   281.8535 9.2128e+01     3.5091      0.180      0.261    12.7280 0.0000e+00
      0.190      0.036     8.6395     81.491     30.501  23.012416     3.2190      7.006   282.2195 9.1408e+01     3.4965      0.186      0.269    12.7262 0.0000e+00
      0.196      0.034     8.5910     81.032     30.500  23.011280     3.2251      7.006   282.5500 9.1438e+01     3.5250      0.192      0.278    12.7247 0.0000e+00
      0.204      0.034     8.5532     80.673     30.502  23.012292     3.2241      7.005   282.7525 9.1457e+01     3.5790      0.200      0.291    12.7225 0.0000e+00
      0.214      0.034     8.5203     80.361     30.519  23.024656     3.2255      7.000   282.9470 9.1271e+01     3.6318      0.210      0.305    12.7211 0.0000e+00
      0.224      0.033     8.4920     80.092     30.533  23.033803     3.2322      6.996   283.1810 9.0945e+01     3.6744      0.220      0.319    12.7218 0.0000e+00
      0.233      0.030     8.4684     79.864     30.485  22.995923     3.2324      6.993   283.2587 9.0453e+01     3.7289      0.229      0.332    12.7212 0.0000e+00
      0.242      0.026     8.4506     79.689     30.424  22.947549     3.2189      6.992   283.1126 8.9486e+01     3.7100      0.237      0.345    12.7191 0.0000e+00
      0.248      0.024     8.4385     79.570     30.438  22.956791     3.1877      6.994   283.1346 8.8110e+01     3.5990      0.245      0.355    12.7181 0.0000e+00
      0.252      0.024     8.4256     79.449     30.470  22.980699     3.1684      6.996   283.4394 8.6540e+01     3.5456      0.248      0.359    12.7178 0.0000e+00
      0.254      0.029     8.4086     79.289     30.472  22.982674     3.1695      6.997   283.7864 8.4928e+01     3.5836      0.249      0.361    12.7145 0.0000e+00
      0.258      0.036     8.3916     79.123     30.472  22.980676     3.1732      6.995   284.1472 8.3422e+01     3.6009      0.251      0.364    12.7093 0.0000e+00
      0.267      0.043     8.3775     78.981     30.444  22.956551     3.2033      6.990   284.3601 8.1541e+01     3.6024      0.258      0.374    12.7066 0.0000e+00
      0.283      0.050     8.3667     78.869     30.433  22.944907     3.2580      6.987   284.4668 7.9444e+01     3.6633      0.276      0.400    12.7082 0.0000e+00
      0.303      0.056     8.3567     78.764     30.467  22.966848     3.2830      6.984   284.7488 7.7802e+01     3.7261      0.298      0.432    12.7089 0.0000e+00
      0.320      0.061     8.3478     78.664     30.476  22.967907     3.2769      6.976   285.1032 7.6772e+01     3.7518      0.316      0.459    12.7056 0.0000e+00
      0.332      0.062     8.3422     78.598     30.468  22.957700     3.2478      6.966   285.2236 7.6364e+01     3.6986      0.325      0.473    12.6996 0.0000e+00
      0.343      0.059     8.3378     78.556     30.485  22.970394     3.1978      6.959   285.0003 7.5398e+01     3.5707      0.332      0.483    12.6934 0.0000e+00
      0.362      0.054     8.3333     78.521     30.515  22.994424     3.1779      6.959   284.8135 7.3433e+01     3.5187      0.353      0.512    12.6899 0.0000e+00
      0.382      0.052     8.3302     78.497     30.512  22.994301     3.1809      6.964   284.9435 7.1914e+01     3.5575      0.377      0.548    12.6787 0.0000e+00
      0.395      0.054     8.3287     78.482     30.479  22.968916     3.1707      6.967   285.1947 7.0984e+01     3.6430      0.390      0.565    12.6671 0.0000e+00
      0.401      0.057     8.3286     78.464     30.450  22.941433     3.1558      6.968   285.6147 6.9828e+01     3.7595      0.393      0.569    12.6698 0.0000e+00
      0.409      0.058     8.3290     78.431     30.432  22.915937     3.1564      6.966   285.9774 6.8152e+01     3.8064      0.397      0.575    12.6750 0.0000e+00
      0.425      0.058     8.3257     78.365     30.447  22.914565     3.1686      6.958   285.8805 6.5871e+01     3.7823      0.413      0.599    12.6780 0.0000e+00
      0.448      0.059     8.3179     78.268     30.472  22.924840     3.1839      6.952   285.9916 6.3774e+01     3.7428      0.441      0.640    12.6821 0.0000e+00
      0.470      0.060     8.3092     78.174     30.462  22.913182     3.2125      6.952   286.4601 6.2384e+01     3.6348      0.464      0.673    12.6729 0.0000e+00
      0.485      0.060     8.3002     78.083     30.447  22.900581     3.2393      6.953   286.4694 6.1539e+01     3.5141      0.478      0.694    12.6464 0.0000e+00
      0.493      0.055     8.2876     77.963     30.447  22.899445     3.2498      6.953   286.2750 6.0945e+01     3.5038      0.483      0.701    12.6239 0.0000e+00
      0.503      0.050     8.2713     77.810     30.447  22.899443     3.2754      6.952   286.3479 5.9947e+01     3.6013      0.490      0.711    12.6120 0.0000e+00
      0.518      0.046     8.2532     77.640     30.449  22.900563     3.3286      6.952   286.4900 5.8815e+01     3.7169      0.509      0.738    12.6051 0.0000e+00
      0.533      0.043     8.2345     77.464     30.465  22.912984     3.3604      6.954   286.7019 5.7988e+01     3.7413      0.524      0.761    12.6020 0.0000e+00
      0.545      0.042     8.2184     77.311     30.478  22.922654     3.3567      6.956   286.9313 5.7282e+01     3.7140      0.534      0.776    12.6020 0.0000e+00
      0.554      0.040     8.2072     77.201     30.438  22.890508     3.3483      6.957   286.9406 5.6579e+01     3.7227      0.543      0.787    12.6028 0.0000e+00
      0.561      0.036     8.1993     77.122     30.375  22.841723     3.3687      6.960   286.9006 5.5755e+01     3.6942      0.550      0.797    12.6027 0.0000e+00
      0.569      0.034     8.1947     77.073     30.376  22.840683     3.4103      6.963   287.1365 5.4947e+01     3.5831      0.558      0.809    12.6030 0.0000e+00
      0.578      0.033     8.1940     77.062     30.428  22.877925     3.4282      6.964   287.3826 5.4208e+01     3.5077      0.568      0.824    12.6018 0.0000e+00
      0.587      0.032     8.1946     77.067     30.472  22.911112     3.4202      6.967   287.2958 5.3506e+01     3.5157      0.576      0.835    12.5992 0.0000e+00
      0.595      0.029     8.1932     77.062     30.486  22.924527     3.3962      6.970   287.2052 5.2825e+01     3.5576      0.584      0.846    12.5968 0.0000e+00
      0.603      0.028     8.1927     77.073     30.464  22.913155     3.3673      6.974   287.3202 5.2094e+01     3.5872      0.592      0.859    12.5933 0.0000e+00
      0.610      0.029     8.1915     77.075     30.441  22.900587     3.3566      6.978   287.5677 5.1580e+01     3.5685      0.601      0.870    12.5898 0.0000e+00
      0.614      0.030     8.1847     77.010     30.441  22.899547     3.3678      6.979   287.7887 5.1227e+01     3.5441      0.603      0.873    12.5881 0.0000e+00
      0.619      0.031     8.1779     76.930     30.449  22.900572     3.4200      6.977   287.7549 5.0558e+01     3.5973      0.604      0.876    12.5929 0.0000e+00
      0.628      0.032     8.1769     76.904     30.474  22.912985     3.5097      6.975   287.6745 4.9655e+01     3.6923      0.615      0.891    12.6043 0.0000e+00
      0.641      0.032     8.1779     76.905     30.490  22.922653     3.5610      6.974   287.7638 4.8897e+01     3.7170      0.630      0.913    12.6148 0.0000e+00
      0.652      0.032     8.1793     76.917     30.448  22.890492     3.5616      6.974   288.0593 4.8397e+01     3.7127      0.641      0.929    12.6150 0.0000e+00
      0.659      0.031     8.1858     76.974     30.384  22.841543     3.5722      6.972   288.3227 4.7979e+01     3.7314      0.646      0.937    12.6025 0.0000e+00
      0.664      0.027     8.1868     76.978     30.383  22.838689     3.5972      6.972   288.2821 4.7439e+01     3.7608      0.650      0.943    12.5890 0.0000e+00
      0.671      0.023     8.1834     76.944     30.407  22.855989     3.6074      6.975   288.1703 4.6850e+01     3.7937      0.657      0.954    12.5859 0.0000e+00
      0.678      0.022     8.1829     76.941     30.412  22.860259     3.6032      6.978   288.1747 4.6364e+01     3.7929      0.665      0.965    12.5882 0.0000e+00
      0.683      0.022     8.1774     76.890     30.452  22.890320     3.5466      6.979   288.2494 4.6018e+01     3.7819      0.670      0.972    12.5858 0.0000e+00
      0.686      0.023     8.1688     76.800     30.472  22.902034     3.4380      6.981   288.3003 4.5690e+01     3.7830      0.673      0.976    12.5810 0.0000e+00
      0.690      0.025     8.1615     76.715     30.443  22.874912     3.3745      6.984   288.2733 4.5245e+01     3.7758      0.676      0.980    12.5794 0.0000e+00
      0.697      0.027     8.1528     76.619     30.456  22.879802     3.3573      6.986   288.2677 4.4716e+01     3.7553      0.683      0.990    12.5817 0.0000e+00
      0.706      0.028     8.1460     76.545     30.485  22.897662     3.3494      6.986   288.3181 4.4211e+01     3.7488      0.693      1.005    12.5844 0.0000e+00
      0.715      0.028     8.1462     76.544     30.490  22.900410     3.3717      6.986   288.3658 4.3715e+01     3.7585      0.701      1.017    12.5778 0.0000e+00
      0.725      0.028     8.1484     76.566     30.506  22.913028     3.4061      6.986   288.4999 4.3253e+01     3.7498      0.710      1.030    12.5655 0.0000e+00
      0.733      0.031     8.1491     76.572     30.520  22.923258     3.4156      6.986   288.7349 4.3046e+01     3.7356      0.721      1.047    12.5578 0.0000e+00
      0.736      0.038     8.1497     76.574     30.488  22.897134     3.4130      6.982   288.8844 4.2981e+01     3.7397      0.722      1.047    12.5517 0.0000e+00
      0.738      0.051     8.1502     76.570     30.430  22.851093     3.4203      6.974   289.0174 4.2743e+01     3.7683      0.718      1.043    12.5494 0.0000e+00
      0.748      0.067     8.1493     76.550     30.381  22.810966     3.4308      6.965   289.2249 4.2150e+01     3.8076      0.729      1.058    12.5522 0.0000e+00
      0.769      0.086     8.1456     76.503     30.363  22.792853     3.4295      6.957   289.4140 4.1169e+01     3.8171      0.751      1.091    12.5520 0.0000e+00
      0.799      0.104     8.1378     76.418     30.408  22.822535     3.4225      6.950   289.6688 4.0134e+01     3.7925      0.782      1.134    12.5492 0.0000e+00
      0.832      0.115     8.1260     76.297     30.453  22.852425     3.4299      6.939   289.8107 3.9096e+01     3.7847      0.816      1.183    12.5453 0.0000e+00
      0.867      0.115     8.1125     76.165     30.435  22.836838     3.4359      6.924   289.6675 3.7918e+01     3.7841      0.850      1.233    12.5387 0.0000e+00
      0.902      0.106     8.0984     76.031     30.419  22.824522     3.4307      6.916   289.5713 3.6890e+01     3.7551      0.885      1.284    12.5309 0.0000e+00
      0.932      0.094     8.0843     75.899     30.427  22.830474     3.4221      6.917   289.6805 3.6219e+01     3.7391      0.916      1.329    12.5227 0.0000e+00
      0.953      0.079     8.0719     75.784     30.446  22.845323     3.3778      6.917   289.7838 3.5829e+01     3.7429      0.939      1.361    12.5167 0.0000e+00
      0.965      0.063     8.0622     75.695     30.487  22.877089     3.3183      6.917   289.7013 3.5462e+01     3.7398      0.947      1.373    12.5139 0.0000e+00
      0.975      0.048     8.0572     75.649     30.514  22.897134     3.2997      6.918   289.5433 3.4956e+01     3.7313      0.953      1.382    12.5129 0.0000e+00
      0.989      0.034     8.0566     75.644     30.514  22.897239     3.3002      6.924   289.5083 3.4532e+01     3.7324      0.972      1.409    12.5132 0.0000e+00
      1.000      0.027     8.0580     75.659     30.487  22.878346     3.2696      6.931   289.6228 3.4405e+01     3.7529      0.985      1.429    12.5148 0.0000e+00
      1.002      0.028     8.0612     75.696     30.458  22.859158     3.2046      6.937   289.8947 3.4472e+01     3.7663      0.983      1.427    12.5166 0.0000e+00
      1.000      0.033     8.0664     75.747     30.453  22.855696     3.1672      6.942   290.1283 3.4543e+01     3.7724      0.980      1.422    12.5169 0.0000e+00
      1.002      0.040     8.0714     75.780     30.434  22.836496     3.1670      6.944   290.1247 3.4457e+01     3.7952      0.978      1.419    12.5157 0.0000e+00
      1.013      0.048     8.0730     75.772     30.419  22.817453     3.1640      6.943   290.0227 3.4092e+01     3.7982      0.988      1.433    12.5165 0.0000e+00
      1.035      0.054     8.0729     75.751     30.427  22.815893     3.1679      6.942   289.9276 3.3552e+01     3.7773      1.015      1.472    12.5234 0.0000e+00
      1.059      0.056     8.0723     75.732     30.436  22.817625     3.1769      6.942   289.8353 3.3087e+01     3.7868      1.043      1.512    12.5274 0.0000e+00
      1.077      0.056     8.0679     75.680     30.468  22.838388     3.1730      6.943   289.8538 3.2841e+01     3.7914      1.059      1.537    12.5173 0.0000e+00
      1.087      0.052     8.0605     75.600     30.524  22.876476     3.1667      6.944   289.9793 3.2783e+01     3.7727      1.067      1.547    12.5004 0.0000e+00
      1.093      0.047     8.0521     75.514     30.555  22.897237     3.1831      6.947   290.0620 3.2714e+01     3.7736      1.072      1.553    12.4879 0.0000e+00
      1.101      0.047     8.0429     75.428     30.557  22.898954     3.2150      6.948   290.1653 3.2428e+01     3.7718      1.078      1.562    12.4819 0.0000e+00
      1.113      0.052     8.0342     75.354     30.552  22.897237     3.2302      6.943   290.2810 3.1982e+01     3.7508      1.090      1.581    12.4768 0.0000e+00
      1.128      0.058     8.0267     75.294     30.519  22.876475     3.2302      6.937   290.3422 3.1581e+01     3.7341      1.106      1.605    12.4688 0.0000e+00
      1.144      0.063     8.0202     75.242     30.464  22.838381     3.2518      6.933   290.3034 3.1097e+01     3.7525      1.120      1.625    12.4637 0.0000e+00
      1.164      0.064     8.0158     75.205     30.434  22.817552     3.3083      6.933   290.3283 3.0447e+01     3.7895      1.140      1.654    12.4652 0.0000e+00
      1.185      0.067     8.0142     75.189     30.431  22.815091     3.3516      6.935   290.6437 2.9984e+01     3.7851      1.164      1.688    12.4691 0.0000e+00
      1.201      0.073     8.0152     75.191     30.426  22.808625     3.3618      6.936   290.9337 2.9774e+01     3.7607      1.179      1.710    12.4756 0.0000e+00
      1.212      0.081     8.0180     75.204     30.425  22.802855     3.3938      6.936   291.0809 2.9550e+01     3.7994      1.188      1.722    12.4828 0.0000e+00
      1.226      0.088     8.0195     75.202     30.440  22.808795     3.4542      6.934   291.2190 2.9064e+01     3.8870      1.197      1.736    12.4849 0.0000e+00
      1.251      0.091     8.0193     75.187     30.458  22.816954     3.4861      6.930   291.2270 2.8188e+01     3.9653      1.221      1.772    12.4842 0.0000e+00
      1.288      0.091     8.0208     75.194     30.489  22.838019     3.4855      6.929   291.1773 2.7239e+01     4.0142      1.264      1.834    12.4816 0.0000e+00
      1.323      0.086     8.0198     75.184     30.537  22.873030     3.4747      6.929   291.2199 2.6644e+01     3.9890      1.304      1.891    12.4721 0.0000e+00
      1.345      0.078     8.0126     75.118     30.518  22.859365     3.4017      6.931   291.3121 2.6389e+01     3.9045      1.324      1.919    12.4604 0.0000e+00
      1.355      0.068     8.0012     75.013     30.438  22.799774     3.2642      6.934   291.3464 2.6227e+01     3.8177      1.329      1.928    12.4530 0.0000e+00
      1.363      0.058     7.9864     74.869     30.423  22.787352     3.1811      6.937   291.2897 2.6029e+01     3.7630      1.335      1.937    12.4492 0.0000e+00
      1.373      0.053     7.9719     74.725     30.492  22.836146     3.1698      6.940   291.3148 2.5729e+01     3.7315      1.344      1.951    12.4479 0.0000e+00
      1.387      0.053     7.9616     74.621     30.556  22.881859     3.1824      6.942   291.4779 2.5325e+01     3.7115      1.360      1.972    12.4501 0.0000e+00
      1.405      0.057     7.9537     74.544     30.576  22.895675     3.2132      6.942   291.7132 2.4929e+01     3.7350      1.379      2.000    12.4525 0.0000e+00
      1.421      0.059     7.9488     74.497     30.551  22.876229     3.2397      6.939   291.9231 2.4587e+01     3.7715      1.395      2.023    12.4489 0.0000e+00
      1.436      0.058     7.9475     74.486     30.499  22.837176     3.2449      6.935   291.8646 2.4245e+01     3.7863      1.407      2.041    12.4424 0.0000e+00
      1.452      0.053     7.9482     74.492     30.455  22.804391     3.2204      6.932   291.6939 2.3894e+01     3.7915      1.424      2.063    12.4384 0.0000e+00
      1.468      0.049     7.9493     74.502     30.445  22.797256     3.1826      6.932   291.7523 2.3629e+01     3.7731      1.442      2.090    12.4370 0.0000e+00
      1.479      0.051     7.9499     74.507     30.468  22.814390     3.1660      6.931   292.0542 2.3501e+01     3.7473      1.453      2.108    12.4369 0.0000e+00
      1.485      0.057     7.9512     74.518     30.478  22.821106     3.1659      6.927   292.3329 2.3389e+01     3.7543      1.457      2.113    12.4372 0.0000e+00
      1.491      0.062     7.9540     74.542     30.470  22.814966     3.1263      6.920   292.2826 2.3107e+01     3.7659      1.458      2.115    12.4374 0.0000e+00
      1.508      0.061     7.9561     74.562     30.455  22.803636     3.0556      6.917   292.0484 2.2492e+01     3.7664      1.471      2.135    12.4370 0.0000e+00
      1.538      0.056     7.9560     74.562     30.464  22.811095     3.0275      6.919   291.9105 2.1747e+01     3.7606      1.508      2.188    12.4363 0.0000e+00
      1.568      0.048     7.9560     74.564     30.504  22.841667     3.0240      6.923   291.9061 2.1378e+01     3.7563      1.545      2.242    12.4365 0.0000e+00
      1.578      0.039     7.9575     74.582     30.522  22.855855     2.9774      6.926   291.9086 2.1461e+01     3.7449      1.555      2.255    12.4350 0.0000e+00
      1.573      0.027     7.9609     74.613     30.522  22.855678     2.8962      6.928   291.8545 2.1609e+01     3.7141      1.543      2.237    12.4336 0.0000e+00
      1.567      0.014     7.9665     74.664     30.502  22.839525     2.8516      6.929   291.6825 2.1584e+01     3.7191      1.533      2.222    12.4349 0.0000e+00
      1.568      0.006     7.9698     74.694     30.517  22.850997     2.8509      6.931   291.5493 2.1420e+01     3.7448      1.535      2.227    12.4362 0.0000e+00
      1.577      0.005     7.9702     74.699     30.538  22.867419     2.8504      6.934   291.7932 2.1271e+01     3.7506      1.548      2.246    12.4383 0.0000e+00
      1.583      0.008     7.9709     74.709     30.510  22.847638     2.8738      6.934   292.0499 2.1261e+01     3.7283      1.556      2.257    12.4388 0.0000e+00
      1.582      0.009     7.9691     74.695     30.533  22.865763     2.9322      6.934   292.0723 2.1288e+01     3.6888      1.551      2.251    12.4365 0.0000e+00
      1.580      0.011     7.9621     74.633     30.572  22.896110     2.9681      6.934   292.1501 2.1230e+01     3.6998      1.548      2.245    12.4358 0.0000e+00
      1.582      0.020     7.9541     74.557     30.573  22.897150     2.9768      6.933   292.3030 2.1163e+01     3.7395      1.550      2.248    12.4371 0.0000e+00
      1.584      0.035     7.9503     74.517     30.550  22.878334     3.0102      6.929   292.5440 2.1112e+01     3.7410      1.555      2.255    12.4396 0.0000e+00
      1.589      0.055     7.9483     74.489     30.529  22.859052     3.0684      6.924   292.7403 2.0899e+01     3.7189      1.554      2.254    12.4416 0.0000e+00
      1.603      0.071     7.9459     74.456     30.529  22.854462     3.1015      6.921   292.7842 2.0373e+01     3.7161      1.565      2.271    12.4436 0.0000e+00
      1.632      0.081     7.9459     74.444     30.492  22.822829     3.1065      6.918   292.8161 1.9668e+01     3.7376      1.600      2.320    12.4443 0.0000e+00
      1.667      0.083     7.9465     74.442     30.457  22.793996     3.0736      6.915   292.7820 1.9065e+01     3.7342      1.639      2.377    12.4408 0.0000e+00
      1.696      0.078     7.9473     74.446     30.498  22.823268     2.9979      6.913   292.6305 1.8676e+01     3.7057      1.668      2.419    12.4348 0.0000e+00
      1.714      0.066     7.9481     74.455     30.546  22.859326     2.9539      6.913   292.4461 1.8436e+01     3.7286      1.683      2.441    12.4279 0.0000e+00
      1.725      0.051     7.9482     74.460     30.530  22.849070     2.9558      6.915   292.4454 1.8288e+01     3.7973      1.693      2.456    12.4212 0.0000e+00
      1.731      0.039     7.9465     74.452     30.495  22.826229     2.9200      6.916   292.6228 1.8216e+01     3.8040      1.699      2.464    12.4158 0.0000e+00
      1.736      0.031     7.9420     74.424     30.503  22.837104     2.8334      6.915   292.6121 1.8150e+01     3.7488      1.701      2.467    12.4137 0.0000e+00
      1.741      0.024     7.9365     74.381     30.520  22.853586     2.7824      6.915   292.4019 1.8005e+01     3.7406      1.705      2.473    12.4149 0.0000e+00
      1.750      0.019     7.9312     74.332     30.495  22.835066     2.7714      6.917   292.3179 1.7803e+01     3.7651      1.715      2.487    12.4168 0.0000e+00
      1.760      0.015     7.9264     74.286     30.454  22.803632     2.7462      6.920   292.3709 1.7677e+01     3.7709      1.729      2.507    12.4210 0.0000e+00
      1.764      0.012     7.9214     74.240     30.437  22.790944     2.7162      6.923   292.4399 1.7687e+01     3.7799      1.732      2.513    12.4310 0.0000e+00
      1.761      0.009     7.9175     74.206     30.460  22.808626     2.7117      6.925   292.5504 1.7715e+01     3.7832      1.726      2.504    12.4396 0.0000e+00
      1.759      0.008     7.9144     74.176     30.485  22.826975     2.7193      6.926   292.6741 1.7672e+01     3.7795      1.723      2.499    12.4376 0.0000e+00
      1.760      0.011     7.9106     74.138     30.480  22.822350     2.7353      6.928   292.8178 1.7620e+01     3.7658      1.725      2.502    12.4348 0.0000e+00
      1.764      0.016     7.9108     74.137     30.473  22.816183     2.8961      6.929   293.0837 1.7563e+01     3.7704      1.728      2.507    12.4367 0.0000e+00
      1.769      0.021     7.9173     74.197     30.473  22.815885     3.1842      6.928   293.3071 1.7430e+01     3.8655      1.733      2.514    12.4382 0.0000e+00
      1.776      0.023     7.9220     74.241     30.477  22.818748     3.3415      6.927   293.1958 1.7246e+01     3.9690      1.741      2.526    12.4378 0.0000e+00
      1.786      0.021     7.9210     74.235     30.517  22.850809     3.3555      6.928   292.8571 1.7082e+01     3.9846      1.753      2.541    12.4358 0.0000e+00
      1.795      0.017     7.9233     74.263     30.561  22.886119     3.2990      6.928   292.7393 1.6996e+01     3.9020      1.763      2.557    12.4347 0.0000e+00
      1.798      0.012     7.9290     74.326     30.529  22.864765     3.1820      6.928   292.8902 1.6987e+01     3.7638      1.764      2.560    12.4332 0.0000e+00
      1.797      0.007     7.9314     74.359     30.499  22.846559     3.1076      6.929   292.9602 1.7012e+01     3.7170      1.762      2.556    12.4325 0.0000e+00
      1.795      0.003     7.9314     74.371     30.506  22.856447     3.0891      6.930   292.9835 1.7022e+01     3.7629      1.760      2.552    12.4357 0.0000e+00
      1.795      0.002     7.9318     74.386     30.502  22.857359     3.0128      6.930   293.0864 1.7002e+01     3.7696      1.759      2.551    12.4396 0.0000e+00
      1.796      0.007     7.9340     74.413     30.499  22.857598     2.8651      6.930   293.1711 1.6968e+01     3.7375      1.761      2.554    12.4444 0.0000e+00
      1.797      0.018     7.9362     74.436     30.500  22.859337     2.7832      6.927   293.2336 1.6928e+01     3.7410      1.762      2.555    12.4515 0.0000e+00
      1.799      0.032     7.9346     74.421     30.526  22.878383     2.7852      6.919   293.3259 1.6878e+01     3.7506      1.764      2.558    12.4596 0.0000e+00
      1.804      0.044     7.9341     74.410     30.554  22.897427     2.8522      6.909   293.3409 1.6706e+01     3.7318      1.766      2.561    12.4665 0.0000e+00
      1.819      0.050     7.9359     74.419     30.561  22.899145     2.9691      6.899   293.2422 1.6314e+01     3.7273      1.779      2.580    12.4697 0.0000e+00
      1.844      0.051     7.9368     74.424     30.563  22.899145     3.0216      6.894   293.1654 1.5887e+01     3.7266      1.809      2.623    12.4715 0.0000e+00
      1.867      0.046     7.9399     74.454     30.559  22.897428     3.0191      6.895   293.1867 1.5657e+01     3.7236      1.836      2.663    12.4717 0.0000e+00
      1.879      0.037     7.9425     74.482     30.532  22.878384     2.9844      6.899   293.3282 1.5610e+01     3.7521      1.846      2.677    12.4682 0.0000e+00
      1.880      0.027     7.9391     74.450     30.507  22.859339     2.9055      6.901   293.4995 1.5632e+01     3.7660      1.844      2.675    12.4614 0.0000e+00
      1.878      0.018     7.9336     74.396     30.506  22.857608     2.8555      6.901   293.6234 1.5647e+01     3.7395      1.840      2.669    12.4577 0.0000e+00
      1.878      0.012     7.9308     74.370     30.506  22.857449     2.8388      6.902   293.7073 1.5601e+01     3.7361      1.841      2.670    12.4607 0.0000e+00
      1.883      0.010     7.9281     74.345     30.505  22.857420     2.8319      6.904   293.6537 1.5492e+01     3.7556      1.845      2.677    12.4639 0.0000e+00
      1.888      0.010     7.9251     74.318     30.505  22.857262     2.8639      6.906   293.4043 1.5390e+01     3.7626      1.852      2.686    12.4633 0.0000e+00
      1.893      0.011     7.9231     74.301     30.502  22.855531     2.9227      6.908   293.2728 1.5354e+01     3.7590      1.857      2.694    12.4611 0.0000e+00
      1.895      0.011     7.9241     74.312     30.475  22.836486     2.9640      6.909   293.4404 1.5362e+01     3.7727      1.859      2.696    12.4612 0.0000e+00
      1.895      0.011     7.9283     74.353     30.449  22.817455     2.9867      6.910   293.4527 1.5361e+01     3.8065      1.858      2.695    12.4623 0.0000e+00
      1.896      0.009     7.9329     74.395     30.448  22.815881     3.0325      6.912   293.2499 1.5308e+01     3.8008      1.857      2.694    12.4626 0.0000e+00
      1.900      0.006     7.9392     74.451     30.451  22.817455     3.1040      6.915   293.2255 1.5218e+01     3.7646      1.862      2.700    12.4626 0.0000e+00
      1.906      0.005     7.9440     74.494     30.478  22.836485     3.1516      6.916   293.4153 1.5180e+01     3.7346      1.871      2.714    12.4653 0.0000e+00
      1.908      0.005     7.9482     74.533     30.503  22.855515     3.1673      6.916   293.5660 1.5217e+01     3.7139      1.873      2.717    12.4659 0.0000e+00
      1.904      0.004     7.9539     74.591     30.503  22.857091     3.1288      6.916   293.4987 1.5255e+01     3.7281      1.866      2.708    12.4638 0.0000e+00
      1.902      0.003     7.9562     74.620     30.497  22.855541     3.0358      6.916   293.3761 1.5243e+01     3.7533      1.862      2.701    12.4632 0.0000e+00
      1.903      0.003     7.9557     74.623     30.468  22.836784     2.9797      6.916   293.3745 1.5204e+01     3.7448      1.866      2.705    12.4606 0.0000e+00
      1.907      0.004     7.9545     74.616     30.445  22.820758     2.9746      6.917   293.4797 1.5191e+01     3.7159      1.871      2.714    12.4602 0.0000e+00
      1.909      0.004     7.9516     74.593     30.485  22.852223     2.9735      6.917   293.4436 1.5186e+01     3.7087      1.872      2.716    12.4634 0.0000e+00
      1.910      0.004     7.9507     74.588     30.547  22.899809     2.9673      6.918   293.3680 1.5152e+01     3.7187      1.872      2.715    12.4693 0.0000e+00
      1.911      0.005     7.9535     74.618     30.530  22.888241     2.9639      6.920   293.5116 1.5134e+01     3.7156      1.875      2.720    12.4743 0.0000e+00
      1.911      0.011     7.9575     74.653     30.466  22.839333     2.9684      6.920   293.5455 1.5165e+01     3.7015      1.876      2.721    12.4757 0.0000e+00
      1.908      0.021     7.9635     74.687     30.446  22.816335     2.9577      6.919   293.5195 1.5198e+01     3.7003      1.870      2.712    12.4780 0.0000e+00
      1.909      0.033     7.9737     74.734     30.448  22.800617     2.9264      6.917   293.7139 1.5091e+01     3.7323      1.865      2.706    12.4799 0.0000e+00
      1.921      0.044     7.9832     74.760     30.445  22.776233     2.9024      6.912   293.8302 1.4824e+01     3.7519      1.881      2.728    12.4830 0.0000e+00
      1.940      0.054     7.9838     74.718     30.467  22.775418     2.8974      6.907   293.7207 1.4548e+01     3.7553      1.904      2.760    12.4851 0.0000e+00
      1.960      0.061     7.9758     74.623     30.498  22.790747     2.9114      6.903   293.6809 1.4277e+01     3.7724      1.922      2.787    12.4744 0.0000e+00
      1.980      0.066     7.9637     74.497     30.478  22.771115     2.9711      6.901   293.9513 1.4034e+01     3.7760      1.943      2.818    12.4423 0.0000e+00
      1.996      0.074     7.9483     74.324     30.435  22.728495     3.0587      6.897   294.4950 1.3895e+01     3.7681      1.959      2.843    12.3985 0.0000e+00
      2.007      0.084     7.9271     74.083     30.444  22.719807     3.0968      6.890   294.9204 1.3760e+01     3.7386      1.968      2.854    12.3659 0.0000e+00
      2.021      0.095     7.9018     73.792     30.483  22.729530     3.1011      6.883   294.9654 1.3479e+01     3.6940      1.977      2.867    12.3588 0.0000e+00
      2.046      0.105     7.8758     73.482     30.503  22.719068     3.1106      6.879   294.8668 1.3021e+01     3.6865      2.001      2.902    12.3607 0.0000e+00
      2.086      0.112     7.8492     73.169     30.537  22.720252     3.1108      6.879   294.8459 1.2492e+01     3.7081      2.045      2.966    12.3382 0.0000e+00
      2.129      0.114     7.8216     72.863     30.593  22.743814     3.1037      6.880   294.8859 1.2077e+01     3.7418      2.093      3.036    12.3121 0.0000e+00
      2.160      0.109     7.7931     72.563     30.618  22.749997     3.0974      6.880   294.9198 1.1825e+01     3.7592      2.123      3.079    12.2849 0.0000e+00
      2.181      0.099     7.7646     72.273     30.606  22.731521     3.0814      6.883   294.9122 1.1615e+01     3.7350      2.138      3.102    12.2360 0.0000e+00
      2.201      0.089     7.7371     71.996     30.588  22.710859     3.0571      6.885   294.8787 1.1396e+01     3.7239      2.158      3.130    12.1944 0.0000e+00
      2.220      0.084     7.7103     71.726     30.572  22.690619     3.0429      6.884   295.0321 1.1189e+01     3.7472      2.177      3.157    12.1672 0.0000e+00
      2.238      0.084     7.6874     71.488     30.567  22.677241     3.0284      6.883   295.3045 1.0979e+01     3.7727      2.195      3.184    12.1466 0.0000e+00
      2.258      0.087     7.6681     71.281     30.579  22.676068     2.9653      6.880   295.3330 1.0767e+01     3.7878      2.214      3.211    12.1322 0.0000e+00
      2.281      0.088     7.6484     71.075     30.591  22.676416     2.8592      6.878   295.2899 1.0507e+01     3.7769      2.235      3.240    12.1203 0.0000e+00
      2.309      0.087     7.6271     70.863     30.605  22.681443     2.7931      6.877   295.3858 1.0192e+01     3.7324      2.263      3.283    12.1096 0.0000e+00
      2.336      0.086     7.6034     70.631     30.600  22.673363     2.7817      6.876   295.4601 9.9430e+00     3.7073      2.294      3.327    12.0935 0.0000e+00
      2.357      0.086     7.5793     70.391     30.567  22.642199     2.8127      6.876   295.4996 9.8083e+00     3.7779      2.315      3.358    12.0739 0.0000e+00
      2.372      0.085     7.5597     70.182     30.553  22.622054     2.8737      6.877   295.5192 9.6990e+00     3.9153      2.325      3.372    12.0593 0.0000e+00
      2.388      0.084     7.5434     69.999     30.567  22.620214     2.9040      6.879   295.5250 9.5077e+00     3.9962      2.338      3.390    12.0515 0.0000e+00
      2.413      0.084     7.5265     69.812     30.583  22.619949     2.8937      6.880   295.6556 9.2464e+00     3.9922      2.366      3.432    12.0474 0.0000e+00
      2.440      0.086     7.5127     69.659     30.594  22.618832     2.8787      6.880   295.7224 9.0183e+00     3.9901      2.396      3.475    12.0368 0.0000e+00
      2.463      0.089     7.5054     69.567     30.590  22.606697     2.8319      6.878   295.6439 8.8439e+00     4.0001      2.416      3.504    12.0197 0.0000e+00
      2.483      0.090     7.5005     69.492     30.597  22.600183     2.7514      6.876   295.7397 8.6727e+00     3.9610      2.434      3.530    11.9981 0.0000e+00
      2.505      0.092     7.4959     69.417     30.619  22.603541     2.7139      6.873   296.1060 8.4553e+00     3.9447      2.455      3.560    11.9770 0.0000e+00
      2.528      0.097     7.4912     69.337     30.610  22.583806     2.7090      6.870   296.5455 8.2382e+00     3.9860      2.480      3.596    11.9640 0.0000e+00
      2.549      0.104     7.4852     69.242     30.588  22.552006     2.7012      6.866   296.7518 8.0570e+00     4.0021      2.500      3.626    11.9510 0.0000e+00
      2.574      0.109     7.4772     69.126     30.589  22.536443     2.7023      6.862   296.7067 7.8352e+00     3.9869      2.521      3.657    11.9304 0.0000e+00
      2.607      0.111     7.4648     68.976     30.589  22.522585     2.7042      6.861   296.6885 7.5669e+00     3.9544      2.556      3.707    11.9087 0.0000e+00
      2.644      0.112     7.4481     68.794     30.589  22.511392     2.7066      6.861   296.8760 7.3232e+00     3.9454      2.596      3.763    11.8880 0.0000e+00
      2.676      0.112     7.4323     68.626     30.623  22.528065     2.6661      6.858   297.1669 7.1465e+00     4.0005      2.628      3.811    11.8616 0.0000e+00
      2.700      0.112     7.4198     68.488     30.642  22.533721     2.5831      6.855   297.3664 7.0193e+00     4.0410      2.648      3.842    11.8334 0.0000e+00
      2.720      0.110     7.4083     68.357     30.632  22.516284     2.5384      6.852   297.3954 6.8512e+00     4.0073      2.664      3.863    11.8095 0.0000e+00
      2.747      0.106     7.3963     68.225     30.632  22.507681     2.5212      6.850   297.3457 6.6236e+00     3.9592      2.692      3.904    11.7925 0.0000e+00
      2.779      0.101     7.3824     68.083     30.619  22.493172     2.4582      6.851   297.2817 6.4036e+00     3.9484      2.726      3.953    11.7810 0.0000e+00
      2.812      0.098     7.3666     67.929     30.589  22.467823     2.3460      6.852   297.2238 6.2081e+00     3.9679      2.759      4.001    11.7670 0.0000e+00
      2.838      0.097     7.3506     67.772     30.577  22.455112     2.2679      6.852   297.3335 6.0661e+00     3.9817      2.789      4.044    11.7486 0.0000e+00
      2.856      0.095     7.3341     67.608     30.599  22.466444     2.2574      6.850   297.5765 5.9680e+00     3.9922      2.802      4.064    11.7341 0.0000e+00
      2.871      0.092     7.3171     67.440     30.620  22.477873     2.3110      6.848   297.6658 5.8326e+00     4.0040      2.812      4.078    11.7263 0.0000e+00
      2.894      0.089     7.3013     67.287     30.609  22.466321     2.4011      6.848   297.5526 5.6577e+00     4.0023      2.836      4.113    11.7223 0.0000e+00
      2.923      0.087     7.2876     67.155     30.595  22.453739     2.4379      6.849   297.4982 5.4971e+00     4.0020      2.868      4.160    11.7170 0.0000e+00
      2.952      0.087     7.2759     67.040     30.598  22.452700     2.4342      6.850   297.5251 5.3636e+00     4.0002      2.898      4.204    11.7082 0.0000e+00
      2.975      0.087     7.2687     66.964     30.604  22.453755     2.4482      6.850   297.6197 5.2680e+00     4.0120      2.921      4.236    11.7010 0.0000e+00
      2.991      0.087     7.2650     66.917     30.628  22.466494     2.4779      6.846   297.7812 5.2016e+00     4.0219      2.933      4.254    11.6959 0.0000e+00
      3.006      0.086     7.2630     66.889     30.651  22.479753     2.5080      6.842   297.8431 5.1145e+00     3.9980      2.945      4.273    11.6921 0.0000e+00
      3.027      0.084     7.2633     66.886     30.665  22.487099     2.5189      6.840   297.8517 4.9948e+00     3.9672      2.965      4.301    11.6894 0.0000e+00
      3.054      0.081     7.2658     66.905     30.673  22.491821     2.5180      6.839   297.8001 4.8490e+00     3.9550      2.993      4.342    11.6820 0.0000e+00
      3.084      0.079     7.2686     66.930     30.649  22.473364     2.4777      6.840   297.7356 4.7201e+00     3.9727      3.028      4.391    11.6721 0.0000e+00
      3.107      0.077     7.2678     66.920     30.625  22.454393     2.3905      6.840   297.8461 4.6559e+00     3.9980      3.053      4.427    11.6662 0.0000e+00
      3.118      0.077     7.2631     66.872     30.625  22.452886     2.3373      6.837   298.1034 4.6195e+00     3.9863      3.059      4.437    11.6627 0.0000e+00
      3.127      0.077     7.2564     66.806     30.630  22.455136     2.3307      6.833   298.2654 4.5663e+00     3.9528      3.062      4.441    11.6607 0.0000e+00
      3.143      0.076     7.2474     66.723     30.666  22.481597     2.3383      6.830   298.1698 4.4729e+00     3.9588      3.078      4.464    11.6605 0.0000e+00
      3.169      0.075     7.2360     66.618     30.717  22.518895     2.3550      6.830   298.0658 4.3333e+00     3.9980      3.106      4.505    11.6591 0.0000e+00
      3.199      0.074     7.2216     66.486     30.726  22.525200     2.3679      6.831   298.0403 4.2037e+00     3.9998      3.140      4.554    11.6547 0.0000e+00
      3.224      0.073     7.2066     66.350     30.683  22.494350     2.3744      6.831   298.0340 4.1254e+00     3.9496      3.167      4.593    11.6521 0.0000e+00
      3.237      0.072     7.1959     66.252     30.640  22.463310     2.3781      6.829   298.2470 4.0844e+00     3.9096      3.176      4.606    11.6531 0.0000e+00
      3.244      0.073     7.1915     66.207     30.648  22.467309     2.3860      6.826   298.5511 4.0559e+00     3.9126      3.180      4.612    11.6522 0.0000e+00
      3.254      0.077     7.1923     66.206     30.669  22.479215     2.3955      6.823   298.6133 3.9915e+00     3.9251      3.187      4.623    11.6511 0.0000e+00
      3.276      0.082     7.1961     66.233     30.674  22.480297     2.3923      6.822   298.4833 3.8628e+00     3.9394      3.208      4.652    11.6539 0.0000e+00
      3.307      0.086     7.2028     66.291     30.677  22.480396     2.3846      6.820   298.3562 3.7088e+00     3.9633      3.243      4.703    11.6559 0.0000e+00
      3.339      0.086     7.2115     66.368     30.678  22.480405     2.3935      6.820   298.3663 3.5918e+00     4.0002      3.277      4.752    11.6521 0.0000e+00
      3.364      0.084     7.2197     66.441     30.679  22.480407     2.4260      6.821   298.4341 3.5365e+00     4.0496      3.303      4.791    11.6455 0.0000e+00
      3.379      0.079     7.2258     66.493     30.683  22.480407     2.4560      6.820   298.4874 3.5092e+00     4.0422      3.317      4.811    11.6402 0.0000e+00
      3.389      0.076     7.2281     66.505     30.688  22.480407     2.4625      6.820   298.5810 3.4637e+00     4.0027      3.322      4.819    11.6371 0.0000e+00
      3.403      0.076     7.2266     66.475     30.696  22.480408     2.5050      6.820   298.6187 3.4003e+00     3.9988      3.333      4.835    11.6360 0.0000e+00
      3.425      0.078     7.2231     66.427     30.705  22.480413     2.5921      6.820   298.6853 3.3170e+00     3.9956      3.357      4.868    11.6346 0.0000e+00
      3.452      0.083     7.2201     66.388     30.711  22.480455     2.6337      6.819   298.7840 3.2204e+00     3.9942      3.387      4.911    11.6322 0.0000e+00
      3.478      0.087     7.2181     66.363     30.715  22.480914     2.6317      6.818   298.7796 3.1410e+00     4.0124      3.413      4.950    11.6271 0.0000e+00
      3.499      0.088     7.2159     66.338     30.724  22.485951     2.6235      6.817   298.8039 3.0796e+00     4.0626      3.432      4.978    11.6160 0.0000e+00
      3.518      0.087     7.2133     66.308     30.716  22.477871     2.6085      6.817   298.9059 3.0278e+00     4.1435      3.448      5.002    11.6032 0.0000e+00
      3.538      0.085     7.2128     66.298     30.677  22.446707     2.5961      6.817   298.9800 2.9625e+00     4.1974      3.468      5.030    11.5960 0.0000e+00
      3.560      0.083     7.2104     66.271     30.653  22.426560     2.5839      6.817   298.9262 2.8878e+00     4.1964      3.492      5.064    11.5934 0.0000e+00
      3.584      0.081     7.2033     66.201     30.653  22.424729     2.5620      6.817   298.7717 2.8294e+00     4.1914      3.515      5.098    11.5904 0.0000e+00
      3.606      0.081     7.2004     66.171     30.654  22.424563     2.5335      6.817   298.7464 2.7810e+00     4.1979      3.538      5.132    11.5865 0.0000e+00
      3.626      0.082     7.1967     66.131     30.657  22.424538     2.5152      6.816   298.9644 2.7393e+00     4.1832      3.557      5.159    11.5821 0.0000e+00
      3.643      0.084     7.1888     66.051     30.661  22.424432     2.5068      6.813   299.2568 2.6876e+00     4.1664      3.572      5.180    11.5782 0.0000e+00
      3.661      0.086     7.1884     66.040     30.664  22.423278     2.4404      6.810   299.3560 2.6202e+00     4.1478      3.588      5.205    11.5760 0.0000e+00
      3.685      0.087     7.1920     66.067     30.651  22.410584     2.3191      6.810   299.3036 2.5533e+00     4.0800      3.612      5.240    11.5740 0.0000e+00
      3.712      0.087     7.1919     66.060     30.636  22.397907     2.2530      6.810   299.3117 2.4831e+00     3.9873      3.640      5.280    11.5702 0.0000e+00
      3.738      0.086     7.1910     66.048     30.637  22.396962     2.2477      6.809   299.3673 2.4143e+00     3.9428      3.667      5.317    11.5652 0.0000e+00
      3.760      0.085     7.1911     66.046     30.642  22.399166     2.2548      6.807   299.4603 2.3658e+00     3.9381      3.690      5.352    11.5599 0.0000e+00
      3.778      0.083     7.1894     66.026     30.679  22.424549     2.2654      6.803   299.5759 2.3336e+00     3.9923      3.705      5.375    11.5551 0.0000e+00
      3.793      0.082     7.1872     65.999     30.717  22.449932     2.2667      6.801   299.6466 2.2943e+00     4.1097      3.718      5.391    11.5517 0.0000e+00
      3.813      0.081     7.1847     65.971     30.723  22.452136     2.2513      6.800   299.6270 2.2427e+00     4.1681      3.738      5.421    11.5496 0.0000e+00
      3.837      0.080     7.1814     65.936     30.724  22.451192     2.2359      6.799   299.5961 2.1892e+00     4.1487      3.764      5.459    11.5479 0.0000e+00
      3.862      0.079     7.1790     65.910     30.709  22.438515     2.2278      6.800   299.6174 2.1360e+00     4.1488      3.788      5.494    11.5450 0.0000e+00
      3.884      0.077     7.1767     65.885     30.694  22.425820     2.2265      6.800   299.6273 2.0836e+00     4.1702      3.811      5.527    11.5400 0.0000e+00
      3.901      0.075     7.1736     65.851     30.695  22.424667     2.2381      6.798   299.8016 2.0484e+00     4.1636      3.827      5.552    11.5361 0.0000e+00
      3.915      0.073     7.1668     65.784     30.698  22.424563     2.2489      6.796   300.0040 2.0196e+00     4.1601      3.838      5.567    11.5335 0.0000e+00
      3.930      0.072     7.1545     65.665     30.702  22.424563     2.2559      6.796   299.9226 1.9742e+00     4.1883      3.853      5.588    11.5312 0.0000e+00
      3.950      0.072     7.1401     65.527     30.705  22.424666     2.2776      6.795   299.7642 1.9268e+00     4.1995      3.873      5.615    11.5286 0.0000e+00
      3.973      0.072     7.1274     65.406     30.709  22.425811     2.2899      6.793   299.7237 1.8902e+00     4.1743      3.896      5.650    11.5252 0.0000e+00
      3.995      0.073     7.1160     65.298     30.728  22.438404     2.2756      6.792   299.7762 1.8654e+00     4.1580      3.920      5.686    11.5219 0.0000e+00
      4.012      0.075     7.1052     65.198     30.745  22.449956     2.2708      6.790   299.8837 1.8347e+00     4.1238      3.936      5.708    11.5176 0.0000e+00
      4.025      0.077     7.0958     65.110     30.730  22.438518     2.2782      6.788   299.9909 1.7930e+00     4.0666      3.945      5.722    11.5132 0.0000e+00
      4.042      0.077     7.0885     65.041     30.716  22.427070     2.2723      6.786   300.0404 1.7599e+00     4.0457      3.961      5.745    11.5104 0.0000e+00
      4.065      0.076     7.0849     65.006     30.732  22.438508     2.2647      6.784   300.0523 1.7234e+00     4.0247      3.984      5.780    11.5089 0.0000e+00
      4.091      0.073     7.0820     64.978     30.748  22.449841     2.3603      6.784   300.0486 1.6794e+00     3.9947      4.013      5.820    11.5078 0.0000e+00
      4.114      0.070     7.0736     64.901     30.730  22.437136     2.5547      6.784   300.0816 1.6429e+00     3.9891      4.038      5.857    11.5067 0.0000e+00
      4.130      0.066     7.0604     64.780     30.696  22.411847     2.6577      6.784   300.1929 1.6208e+00     3.9868      4.053      5.879    11.5055 0.0000e+00
      4.139      0.064     7.0454     64.641     30.678  22.398014     2.6507      6.783   300.2751 1.6103e+00     3.9671      4.059      5.887    11.5041 0.0000e+00
      4.149      0.063     7.0285     64.484     30.677  22.396850     2.6351      6.782   300.3011 1.5957e+00     3.9647      4.065      5.896    11.5035 0.0000e+00
      4.164      0.064     7.0112     64.323     30.679  22.397777     2.5891      6.782   300.2496 1.5673e+00     4.0493      4.079      5.918    11.5036 0.0000e+00
      4.185      0.066     6.9952     64.175     30.695  22.409214     2.5071      6.781   300.1687 1.5331e+00     4.1659      4.105      5.953    11.5035 0.0000e+00
      4.207      0.070     6.9802     64.038     30.694  22.408174     2.4617      6.781   300.1827 1.5022e+00     4.2148      4.128      5.988    11.5026 0.0000e+00
      4.226      0.072     6.9692     63.935     30.664  22.385194     2.4542      6.781   300.2477 1.4712e+00     4.2129      4.145      6.012    11.5012 0.0000e+00
      4.241      0.073     6.9622     63.867     30.667  22.385299     2.4527      6.780   300.3518 1.4430e+00     4.2042      4.160      6.032    11.4996 0.0000e+00
      4.256      0.074     6.9573     63.819     30.702  22.409442     2.4534      6.777   300.4954 1.4181e+00     4.2013      4.172      6.052    11.4987 0.0000e+00
      4.274      0.076     6.9566     63.809     30.723  22.423171     2.4527      6.773   300.5212 1.3883e+00     4.1783      4.189      6.076    11.4989 0.0000e+00
      4.294      0.076     6.9586     63.825     30.725  22.424325     2.4538      6.771   300.4911 1.3602e+00     4.1392      4.210      6.106    11.4982 0.0000e+00
      4.318      0.074     6.9615     63.850     30.724  22.423398     2.4397      6.771   300.5619 1.3366e+00     4.0957      4.234      6.142    11.4957 0.0000e+00
      4.343      0.070     6.9670     63.900     30.709  22.411961     2.4104      6.770   300.6025 1.3122e+00     4.0482      4.262      6.183    11.4923 0.0000e+00
      4.362      0.066     6.9745     63.968     30.711  22.413002     2.3935      6.769   300.7245 1.2898e+00     4.0225      4.280      6.207    11.4896 0.0000e+00
      4.373      0.064     6.9832     64.047     30.743  22.435982     2.3821      6.767   300.9189 1.2746e+00     3.9993      4.289      6.221    11.4887 0.0000e+00
      4.382      0.067     6.9938     64.145     30.743  22.435877     2.3554      6.764   301.0603 1.2671e+00     3.9803      4.296      6.231    11.4884 0.0000e+00
      4.393      0.073     7.0042     64.240     30.709  22.411733     2.3280      6.760   301.2294 1.2461e+00     3.9768      4.304      6.242    11.4876 0.0000e+00
      4.412      0.082     7.0128     64.319     30.690  22.397995     2.3267      6.757   301.2428 1.2101e+00     3.9881      4.323      6.271    11.4872 0.0000e+00
      4.439      0.091     7.0204     64.387     30.690  22.396737     2.3304      6.757   301.2208 1.1718e+00     4.0244      4.352      6.312    11.4867 0.0000e+00
      4.469      0.099     7.0246     64.421     30.692  22.396520     2.3361      6.755   301.4801 1.1321e+00     4.0489      4.384      6.358    11.4868 0.0000e+00
      4.498      0.105     7.0239     64.405     30.696  22.395366     2.3685      6.751   301.7978 1.1014e+00     4.0407      4.414      6.402    11.4878 0.0000e+00
      4.523      0.107     7.0202     64.360     30.686  22.382783     2.3904      6.747   301.8793 1.0788e+00     4.0166      4.437      6.435    11.4874 0.0000e+00
      4.546      0.106     7.0142     64.293     30.676  22.371335     2.3897      6.745   301.8623 1.0493e+00     3.9706      4.455      6.463    11.4864 0.0000e+00
      4.575      0.103     7.0046     64.197     30.698  22.383918     2.3873      6.744   301.8504 1.0118e+00     3.9125      4.485      6.505    11.4845 0.0000e+00
      4.605      0.100     6.9946     64.099     30.735  22.407948     2.3713      6.744   301.8214 9.7562e-01     3.9548      4.517      6.551    11.4778 0.0000e+00
      4.632      0.097     6.9854     64.010     30.737  22.407939     2.3432      6.744   301.8559 9.4066e-01     4.1161      4.543      6.591    11.4681 0.0000e+00
      4.657      0.096     6.9757     63.917     30.707  22.383815     2.3230      6.741   302.0953 9.0966e-01     4.2148      4.569      6.626    11.4601 0.0000e+00
      4.677      0.098     6.9675     63.836     30.691  22.370193     2.3108      6.735   302.9093 8.8116e-01     4.2021      4.587      6.653    11.4545 0.0000e+00
      4.697      0.107     6.9600     63.762     30.694  22.370193     2.2789      6.724   304.1260 8.5195e-01     4.1757      4.605      6.679    11.4506 0.0000e+00
      4.719      0.124     6.9494     63.658     30.717  22.383817     2.2305      6.711   304.7609 8.2900e-01     4.1702      4.626      6.709    11.4480 0.0000e+00
      4.747      0.142     6.9356     63.523     30.756  22.407951     2.2037      6.702   304.4773 8.1014e-01     4.1670      4.653      6.748    11.4451 0.0000e+00
      4.787      0.152     6.9219     63.388     30.761  22.408066     2.1945      6.700   303.9666 7.8049e-01     4.1673      4.689      6.800    11.4409 0.0000e+00
      4.841      0.149     6.9076     63.250     30.734  22.385191     2.1183      6.702   303.6614 7.3995e-01     4.1428      4.743      6.880    11.4374 0.0000e+00
      4.900      0.134     6.8913     63.100     30.734  22.385305     1.9719      6.705   303.4543 7.0878e-01     4.0539      4.812      6.980    11.4336 0.0000e+00
      4.943      0.112     6.8745     62.948     30.766  22.409449     1.8861      6.708   303.3557 6.9823e-01     3.9771      4.858      7.045    11.4269 0.0000e+00
      4.960      0.089     6.8560     62.781     30.784  22.423177     1.8716      6.709   303.3298 6.9161e-01     3.9471      4.870      7.063    11.4190 0.0000e+00
      4.960      0.070     6.8345     62.584     30.785  22.424321     1.8785      6.710   303.2276 6.8183e-01     3.9358      4.864      7.056    11.4143 0.0000e+00
      4.960      0.058     6.8127     62.383     30.785  22.423290     1.9057      6.712   303.1523 6.7837e-01     3.9620      4.858      7.047    11.4140 0.0000e+00
      4.972      0.057     6.7939     62.208     30.769  22.410708     1.9244      6.713   303.1080 6.6480e-01     3.9890      4.870      7.063    11.4160 0.0000e+00
      4.996      0.062     6.7779     62.061     30.754  22.399156     1.9213      6.714   302.9499 6.3989e-01     3.9880      4.899      7.106    11.4186 0.0000e+00
      5.022      0.068     6.7632     61.926     30.769  22.410585     1.8866      6.715   302.7893 6.2386e-01     4.0412      4.928      7.147    11.4187 0.0000e+00
      5.043      0.069     6.7503     61.812     30.783  22.421928     1.8360      6.717   302.7150 6.2287e-01     4.1445      4.946      7.174    11.4165 0.0000e+00
      5.058      0.064     6.7422     61.742     30.763  22.409336     1.8135      6.719   302.6532 6.3080e-01     4.1995      4.961      7.196    11.4147 0.0000e+00
      5.071      0.055     6.7401     61.728     30.727  22.385306     1.8083      6.721   302.5585 6.3216e-01     4.1866      4.973      7.212    11.4137 0.0000e+00
      5.083      0.047     6.7409     61.742     30.722  22.385315     1.8012      6.723   302.6026 6.2584e-01     4.1413      4.984      7.227    11.4135 0.0000e+00
      5.095      0.046     6.7420     61.760     30.752  22.409449     1.8278      6.723   302.8428 6.1789e-01     4.0802      4.998      7.249    11.4160 0.0000e+00
      5.104      0.052     6.7460     61.800     30.768  22.423175     1.8909      6.720   303.3115 6.0665e-01     3.9963      5.007      7.264    11.4200 0.0000e+00
      5.110      0.066     6.7527     61.857     30.773  22.424311     1.9308      6.714   303.9677 6.0156e-01     3.9509      5.009      7.265    11.4234 0.0000e+00
      5.121      0.082     6.7606     61.915     30.779  22.423176     1.9432      6.705   304.3238 5.9619e-01     3.9587      5.018      7.277    11.4281 0.0000e+00
      5.144      0.097     6.7682     61.965     30.772  22.409450     1.9853      6.699   304.3474 5.6834e-01     3.9989      5.040      7.310    11.4346 0.0000e+00
      5.179      0.108     6.7723     61.983     30.750  22.385308     2.0630      6.695   304.2532 5.3411e-01     4.0702      5.075      7.362    11.4387 0.0000e+00
      5.220      0.112     6.7748     61.992     30.759  22.385194     2.1192      6.693   304.0450 5.1421e-01     4.1188      5.123      7.429    11.4355 0.0000e+00
      5.256      0.107     6.7753     61.989     30.794  22.408069     2.1322      6.693   303.8085 5.0023e-01     4.1295      5.160      7.483    11.4247 0.0000e+00
      5.282      0.094     6.7700     61.937     30.796  22.407955     2.1101      6.694   303.6316 4.8910e-01     4.1687      5.183      7.517    11.4089 0.0000e+00
      5.302      0.075     6.7602     61.845     30.765  22.383812     2.0818      6.697   303.6270 4.8167e-01     4.2268      5.202      7.544    11.3942 0.0000e+00
      5.316      0.057     6.7482     61.733     30.748  22.370086     2.0753      6.700   303.6669 4.7231e-01     4.2211      5.214      7.563    11.3843 0.0000e+00
      5.326      0.043     6.7351     61.613     30.747  22.368960     2.0677      6.701   303.6832 4.6740e-01     4.1915      5.224      7.577    11.3793 0.0000e+00
      5.333      0.036     6.7235     61.507     30.748  22.370200     2.0447      6.701   303.7386 4.6558e-01     4.2046      5.230      7.586    11.3778 0.0000e+00
      5.338      0.034     6.7112     61.394     30.768  22.385070     2.0177      6.701   303.7342 4.5992e-01     4.2276      5.235      7.593    11.3764 0.0000e+00
      5.343      0.034     6.6990     61.279     30.821  22.421796     2.0089      6.702   303.7161 4.5683e-01     4.1950      5.240      7.599    11.3743 0.0000e+00
      5.352      0.035     6.6914     61.206     30.839  22.433349     2.0110      6.702   303.7778 4.5750e-01     4.1453      5.245      7.608    11.3733 0.0000e+00
      5.366      0.040     6.6817     61.115     30.791  22.397788     2.0063      6.702   304.0493 4.6116e-01     4.1458      5.263      7.633    11.3746 0.0000e+00
      5.379      0.048     6.6703     61.009     30.758  22.372719     2.0076      6.699   304.4180 4.5970e-01     4.1708      5.279      7.656    11.3747 0.0000e+00
      5.387      0.058     6.6666     60.972     30.775  22.384177     2.0076      6.695   304.5359 4.5515e-01     4.2032      5.283      7.663    11.3715 0.0000e+00
      5.395      0.067     6.6669     60.971     30.811  22.409352     1.9974      6.691   304.4422 4.5699e-01     4.2318      5.287      7.668    11.3687 0.0000e+00
      5.413      0.073     6.6643     60.945     30.832  22.423182     1.9949      6.689   304.4042 4.4481e-01     4.2113      5.303      7.692    11.3677 0.0000e+00
      5.442      0.076     6.6592     60.896     30.836  22.424429     2.0141      6.688   304.4202 4.1868e-01     4.1395      5.338      7.742    11.3669 0.0000e+00
      5.471      0.075     6.6535     60.843     30.836  22.424429     2.0458      6.688   304.3778 4.1263e-01     4.0650      5.370      7.788    11.3648 0.0000e+00
      5.492      0.068     6.6471     60.785     30.834  22.423180     2.0657      6.689   304.4080 4.2106e-01     4.0127      5.386      7.812    11.3624 0.0000e+00
      5.508      0.057     6.6419     60.740     30.813  22.409330     2.0707      6.689   304.4413 4.1846e-01     3.9644      5.402      7.836    11.3600 0.0000e+00
      5.518      0.044     6.6386     60.713     30.776  22.383938     2.0417      6.690   304.3494 4.0664e-01     3.9398      5.413      7.851    11.3583 0.0000e+00
      5.524      0.035     6.6350     60.683     30.755  22.370098     1.9718      6.691   304.4162 4.0600e-01     3.9591      5.417      7.856    11.3576 0.0000e+00
      5.528      0.034     6.6326     60.661     30.753  22.368963     1.9252      6.691   304.6457 4.1087e-01     3.9532      5.421      7.862    11.3576 0.0000e+00
      5.533      0.039     6.6317     60.650     30.757  22.370212     1.9193      6.689   304.9744 3.9497e-01     3.9302      5.425      7.868    11.3601 0.0000e+00
      5.541      0.049     6.6312     60.639     30.782  22.385197     1.9095      6.684   305.3787 3.7280e-01     3.9548      5.431      7.878    11.3636 0.0000e+00
      5.553      0.061     6.6319     60.636     30.840  22.423171     1.8893      6.679   305.4899 3.6725e-01     3.9760      5.444      7.896    11.3653 0.0000e+00
      5.572      0.070     6.6306     60.615     30.880  22.448461     1.8770      6.674   305.3732 3.6680e-01     3.9726      5.462      7.922    11.3656 0.0000e+00
      5.596      0.073     6.6268     60.575     30.868  22.437034     1.8714      6.674   305.2583 3.4999e-01     3.9746      5.485      7.956    11.3639 0.0000e+00
      5.624      0.070     6.6248     60.555     30.834  22.411965     1.8864      6.675   305.1336 3.3491e-01     3.9702      5.516      8.001    11.3589 0.0000e+00
      5.646      0.065     6.6243     60.553     30.816  22.399287     1.9195      6.676   305.0693 3.4239e-01     3.9507      5.542      8.037    11.3516 0.0000e+00
      5.658      0.059     6.6221     60.533     30.831  22.410716     1.9316      6.677   305.0834 3.5101e-01     3.9215      5.550      8.050    11.3441 0.0000e+00
      5.664      0.054     6.6190     60.502     30.850  22.423185     1.9322      6.678   305.0458 3.4250e-01     3.9224      5.555      8.055    11.3394 0.0000e+00
      5.672      0.051     6.6162     60.472     30.852  22.423079     1.9355      6.679   304.9585 3.3625e-01     3.9614      5.560      8.064    11.3394 0.0000e+00
      5.686      0.050     6.6127     60.437     30.836  22.409437     1.9624      6.679   304.8885 3.4258e-01     3.9657      5.574      8.084    11.3414 0.0000e+00
      5.704      0.051     6.6097     60.409     30.803  22.385199     2.0281      6.679   304.8022 3.3923e-01     3.9743      5.594      8.114    11.3424 0.0000e+00
      5.721      0.051     6.6076     60.389     30.801  22.383951     2.0683      6.680   304.6890 3.2847e-01     4.0042      5.612      8.139    11.3411 0.0000e+00
      5.734      0.048     6.6021     60.339     30.815  22.394348     2.0618      6.682   304.5521 3.2487e-01     3.9913      5.623      8.157    11.3362 0.0000e+00
      5.744      0.042     6.5938     60.264     30.801  22.383940     2.0231      6.684   304.5236 3.2662e-01     4.0325      5.634      8.172    11.3332 0.0000e+00
      5.754      0.036     6.5889     60.219     30.802  22.385075     1.9682      6.685   304.6024 3.3072e-01     4.1361      5.645      8.188    11.3334 0.0000e+00
      5.761      0.032     6.5881     60.213     30.833  22.408074     1.9401      6.686   304.6446 3.2907e-01     4.1752      5.651      8.195    11.3338 0.0000e+00
      5.766      0.030     6.5872     60.205     30.833  22.408084     1.9224      6.687   304.6038 3.1695e-01     4.1699      5.654      8.200    11.3341 0.0000e+00
      5.773      0.028     6.5854     60.187     30.802  22.385189     1.8651      6.688   304.4529 3.0833e-01     4.1940      5.660      8.209    11.3339 0.0000e+00
      5.783      0.027     6.5850     60.182     30.803  22.385198     1.7889      6.689   304.3691 3.0674e-01     4.2221      5.672      8.225    11.3341 0.0000e+00
      5.791      0.027     6.5872     60.200     30.836  22.408188     1.7544      6.690   304.3646 3.0809e-01     4.2053      5.680      8.239    11.3345 0.0000e+00
      5.797      0.026     6.5898     60.222     30.839  22.409219     1.7524      6.691   304.2265 3.1284e-01     4.1736      5.685      8.245    11.3346 0.0000e+00
      5.802      0.026     6.5909     60.231     30.824  22.397666     1.7543      6.692   304.1625 3.0439e-01     4.1742      5.690      8.252    11.3346 0.0000e+00
      5.808      0.027     6.5904     60.229     30.819  22.395471     1.7498      6.691   304.3652 2.9231e-01     4.1823      5.695      8.260    11.3335 0.0000e+00
      5.815      0.030     6.5889     60.220     30.798  22.382680     1.7350      6.689   304.6124 3.0426e-01     4.1798      5.703      8.272    11.3322 0.0000e+00
      5.821      0.034     6.5856     60.192     30.778  22.369975     1.7310      6.685   304.7423 3.1587e-01     4.1753      5.709      8.280    11.3302 0.0000e+00
      5.829      0.037     6.5819     60.158     30.777  22.368821     1.7394      6.683   304.7312 3.0534e-01     4.1582      5.713      8.286    11.3276 0.0000e+00
      5.842      0.037     6.5802     60.140     30.779  22.368726     1.7441      6.683   304.6494 2.9106e-01     4.1559      5.729      8.309    11.3300 0.0000e+00
      5.856      0.036     6.5788     60.126     30.780  22.368830     1.7509      6.683   304.6140 2.9270e-01     4.1778      5.745      8.333    11.3348 0.0000e+00
      5.868      0.034     6.5756     60.099     30.781  22.370079     1.7584      6.683   304.6469 3.0165e-01     4.1786      5.755      8.348    11.3378 0.0000e+00
      5.874      0.033     6.5711     60.059     30.799  22.383824     1.7515      6.682   304.7037 3.0240e-01     4.1654      5.761      8.358    11.3377 0.0000e+00
      5.876      0.031     6.5699     60.049     30.832  22.408063     1.7684      6.681   304.6979 2.9650e-01     4.1708      5.762      8.357    11.3345 0.0000e+00
      5.881      0.031     6.5735     60.081     30.834  22.409208     1.8253      6.681   304.6629 2.8708e-01     4.1837      5.764      8.362    11.3325 0.0000e+00
      5.891      0.032     6.5774     60.116     30.819  22.397676     1.8600      6.681   304.6246 2.8815e-01     4.1692      5.777      8.378    11.3347 0.0000e+00
      5.903      0.032     6.5789     60.127     30.817  22.395596     1.8575      6.682   304.5796 2.9890e-01     4.1474      5.789      8.396    11.3371 0.0000e+00
      5.914      0.031     6.5797     60.134     30.802  22.384064     1.8404      6.684   304.6353 2.9852e-01     4.1648      5.800      8.412    11.3368 0.0000e+00
      5.922      0.029     6.5815     60.152     30.803  22.385209     1.8181      6.685   304.6957 2.8916e-01     4.1958      5.810      8.426    11.3363 0.0000e+00
      5.927      0.026     6.5832     60.169     30.835  22.409437     1.8085      6.685   304.7077 2.8144e-01     4.2178      5.813      8.430    11.3349 0.0000e+00
      5.930      0.022     6.5817     60.157     30.852  22.423069     1.8080      6.685   304.6940 2.7504e-01     4.2160      5.815      8.433    11.3332 0.0000e+00
      5.935      0.020     6.5773     60.116     30.852  22.423059     1.8213      6.686   304.6161 2.7779e-01     4.1735      5.819      8.440    11.3327 0.0000e+00
      5.942      0.020     6.5728     60.074     30.834  22.409322     1.8490      6.687   304.6260 2.8438e-01     4.1316      5.828      8.452    11.3339 0.0000e+00
      5.948      0.021     6.5695     60.041     30.801  22.383939     1.8672      6.688   304.6415 2.8141e-01     4.1373      5.834      8.461    11.3354 0.0000e+00
      5.952      0.022     6.5665     60.011     30.784  22.370090     1.8759      6.689   304.5454 2.7964e-01     4.1499      5.838      8.466    11.3368 0.0000e+00
      5.956      0.022     6.5646     59.992     30.784  22.368842     1.9177      6.689   304.4965 2.8682e-01     4.1322      5.840      8.471    11.3374 0.0000e+00
      5.962      0.021     6.5660     60.002     30.785  22.368841     2.0046      6.690   304.5668 2.9000e-01     4.1363      5.845      8.478    11.3362 0.0000e+00
      5.968      0.020     6.5683     60.022     30.787  22.370080     2.0626      6.691   304.6208 2.8270e-01     4.1698      5.853      8.489    11.3336 0.0000e+00
      5.975      0.019     6.5681     60.019     30.806  22.383815     2.0779      6.692   304.6335 2.7689e-01     4.1710      5.860      8.500    11.3309 0.0000e+00
      5.981      0.019     6.5664     60.001     30.841  22.407949     2.1429      6.692   304.6343 2.7639e-01     4.1511      5.867      8.509    11.3292 0.0000e+00
      5.984      0.020     6.5664     59.999     30.843  22.407949     2.2610      6.693   304.5453 2.7549e-01     4.1733      5.869      8.512    11.3282 0.0000e+00
      5.985      0.022     6.5669     60.003     30.811  22.383814     2.3293      6.693   304.5031 2.6614e-01     4.1945      5.868      8.511    11.3278 0.0000e+00
      5.989      0.023     6.5661     59.993     30.793  22.370064     2.3340      6.693   304.5534 2.4559e-01     4.1639      5.872      8.516    11.3274 0.0000e+00
      5.998      0.024     6.5644     59.974     30.793  22.368669     2.3190      6.694   304.5517 2.3976e-01     4.1385      5.882      8.531    11.3256 0.0000e+00
      6.008      0.025     6.5637     59.965     30.792  22.366943     2.2666      6.694   304.4827 2.5199e-01     4.1621      5.893      8.547    11.3234 0.0000e+00
      6.015      0.025     6.5638     59.963     30.769  22.349190     2.1878      6.693   304.4932 2.6000e-01     4.2053      5.901      8.558    11.3227 0.0000e+00
      6.020      0.024     6.5625     59.947     30.765  22.344468     2.1475      6.693   304.5923 2.6400e-01     4.2037      5.904      8.563    11.3211 0.0000e+00
      6.025      0.023     6.5598     59.917     30.808  22.373324     2.1276      6.693   304.6487 2.6485e-01     4.1737      5.906      8.567    11.3178 0.0000e+00
      6.030      0.021     6.5571     59.887     30.822  22.380669     2.0490      6.693   304.7450 2.6283e-01     4.1778      5.912      8.575    11.3163 0.0000e+00
      6.036      0.021     6.5553     59.867     30.809  22.369795     1.9324      6.694   304.8963 2.6198e-01     4.1919      5.920      8.586    11.3154 0.0000e+00
      6.042      0.022     6.5532     59.848     30.807  22.368805     1.8752      6.694   304.9298 2.5703e-01     4.1916      5.927      8.595    11.3129 0.0000e+00
      6.047      0.022     6.5509     59.828     30.807  22.368701     1.8718      6.695   304.8054 2.4738e-01     4.1738      5.930      8.600    11.3079 0.0000e+00
      6.052      0.021     6.5487     59.808     30.807  22.368536     1.8553      6.695   304.6833 2.5253e-01     4.1597      5.935      8.607    11.3028 0.0000e+00
      6.058      0.021     6.5475     59.797     30.804  22.366818     1.8225      6.695   304.6574 2.6643e-01     4.1734      5.941      8.617    11.3006 0.0000e+00
      6.063      0.022     6.5496     59.817     30.778  22.347931     1.8061      6.696   304.6640 2.6265e-01     4.1870      5.945      8.625    11.3013 0.0000e+00
      6.068      0.022     6.5530     59.847     30.754  22.330617     1.8131      6.696   304.6772 2.4395e-01     4.1720      5.951      8.631    11.3022 0.0000e+00
      6.073      0.022     6.5537     59.851     30.779  22.347930     1.8337      6.697   304.6443 2.3064e-01     4.1440      5.955      8.636    11.3021 0.0000e+00
      6.079      0.020     6.5524     59.839     30.806  22.366803     1.8627      6.697   304.6114 2.3363e-01     4.1545      5.959      8.643    11.3023 0.0000e+00
      6.088      0.019     6.5528     59.842     30.808  22.368364     1.8790      6.696   304.7956 2.5043e-01     4.1766      5.971      8.660    11.3028 0.0000e+00
      6.095      0.021     6.5529     59.842     30.805  22.366804     1.8832      6.692   305.3223 2.6451e-01     4.1674      5.980      8.673    11.3022 0.0000e+00
      6.095      0.030     6.5503     59.817     30.780  22.347941     1.9135      6.684   305.9039 2.5611e-01     4.1657      5.978      8.670    11.3004 0.0000e+00
      6.093      0.041     6.5464     59.780     30.758  22.330741     1.9795      6.674   306.0629 2.3649e-01     4.1562      5.973      8.663    11.2995 0.0000e+00
      6.099      0.052     6.5411     59.730     30.785  22.349288     2.0370      6.665   305.9540 2.2584e-01     4.1440      5.976      8.667    11.2997 0.0000e+00
      6.119      0.062     6.5356     59.678     30.830  22.381741     2.0672      6.661   306.0505 2.1616e-01     4.1705      5.996      8.695    11.3000 0.0000e+00
      6.149      0.072     6.5312     59.639     30.864  22.405719     2.0781      6.661   306.1970 2.0806e-01     4.1714      6.033      8.749    11.2994 0.0000e+00
      6.175      0.079     6.5271     59.602     30.835  22.385271     2.1041      6.661   306.1773 2.0872e-01     4.2156      6.062      8.792    11.2975 0.0000e+00
      6.191      0.080     6.5247     59.578     30.752  22.324950     2.1615      6.661   306.1554 2.0276e-01     4.3384      6.072      8.807    11.2958 0.0000e+00
      6.205      0.076     6.5260     59.586     30.736  22.311214     2.1927      6.661   306.1047 2.0027e-01     4.3741      6.083      8.823    11.2948 0.0000e+00
      6.223      0.068     6.5282     59.600     30.789  22.346153     2.1960      6.661   305.9942 2.0555e-01     4.3427      6.102      8.850    11.2951 0.0000e+00
      6.244      0.063     6.5276     59.588     30.820  22.366488     2.1743      6.662   305.8517 2.0213e-01     4.2939      6.124      8.882    11.2965 0.0000e+00
      6.264      0.062     6.5240     59.551     30.823  22.366635     2.1141      6.663   305.8447 2.0465e-01     4.2120      6.145      8.912    11.2961 0.0000e+00
      6.278      0.067     6.5182     59.496     30.799  22.347926     2.0749      6.663   306.1678 2.0890e-01     4.1770      6.160      8.934    11.2917 0.0000e+00
      6.288      0.076     6.5148     59.462     30.778  22.330734     2.0678      6.662   306.5758 2.0163e-01     4.1745      6.166      8.944    11.2863 0.0000e+00
      6.299      0.087     6.5143     59.452     30.806  22.349213     2.0658      6.660   306.8197 1.9212e-01     4.1515      6.172      8.952    11.2821 0.0000e+00
      6.321      0.099     6.5111     59.416     30.854  22.380901     2.0680      6.655   306.9653 1.8461e-01     4.1736      6.194      8.983    11.2795 0.0000e+00
      6.356      0.112     6.5067     59.368     30.879  22.396450     2.0666      6.651   307.1318 1.8218e-01     4.2278      6.233      9.040    11.2777 0.0000e+00
      6.395      0.119     6.5020     59.318     30.903  22.410246     2.0676      6.649   307.1970 1.8319e-01     4.2276      6.274      9.100    11.2755 0.0000e+00
      6.431      0.115     6.4953     59.251     30.921  22.420738     2.0799      6.648   306.9796 1.8186e-01     4.2015      6.307      9.148    11.2718 0.0000e+00
      6.462      0.100     6.4876     59.178     30.889  22.396341     2.0956      6.648   306.7407 1.7626e-01     4.1869      6.338      9.193    11.2666 0.0000e+00
      6.490      0.078     6.4778     59.088     30.852  22.369191     2.1110      6.649   306.8032 1.6973e-01     4.1731      6.368      9.236    11.2615 0.0000e+00
      6.510      0.058     6.4652     58.976     30.819  22.346402     2.1277      6.651   306.9610 1.6710e-01     4.1571      6.388      9.265    11.2562 0.0000e+00
      6.516      0.044     6.4507     58.847     30.768  22.311252     2.1329      6.651   307.0149 1.6721e-01     4.1452      6.393      9.271    11.2512 0.0000e+00
      6.514      0.038     6.4367     58.718     30.788  22.325093     2.0723      6.650   307.1106 1.6069e-01     4.1512      6.388      9.264    11.2490 0.0000e+00
      6.514      0.038     6.4233     58.591     30.877  22.386779     1.9551      6.648   307.1711 1.5333e-01     4.1690      6.384      9.260    11.2490 0.0000e+00
      6.524      0.043     6.4111     58.474     30.929  22.422265     1.8833      6.647   307.1443 1.4951e-01     4.1779      6.392      9.272    11.2513 0.0000e+00
      6.544      0.051     6.4024     58.389     30.952  22.436741     1.8668      6.647   307.2164 1.4850e-01     4.1669      6.416      9.306    11.2556 0.0000e+00
      6.566      0.061     6.3965     58.331     30.952  22.434832     1.8651      6.647   307.2688 1.5544e-01     4.1277      6.442      9.344    11.2551 0.0000e+00
      6.581      0.068     6.3913     58.280     30.906  22.399183     1.8717      6.647   307.1749 1.5342e-01     4.1003      6.454      9.362    11.2489 0.0000e+00
      6.593      0.072     6.3830     58.199     30.892  22.386603     1.8735      6.646   307.1139 1.3974e-01     4.1410      6.462      9.374    11.2440 0.0000e+00
      6.610      0.072     6.3714     58.088     30.927  22.409697     1.8772      6.646   307.1340 1.3126e-01     4.1923      6.481      9.399    11.2411 0.0000e+00
      6.631      0.072     6.3589     57.969     30.951  22.424475     1.9267      6.646   307.1598 1.3555e-01     4.2020      6.503      9.432    11.2387 0.0000e+00
      6.653      0.073     6.3453     57.841     30.972  22.438307     2.0119      6.645   307.2537 1.4265e-01     4.2277      6.525      9.464    11.2356 0.0000e+00
      6.674      0.074     6.3294     57.694     30.990  22.449973     2.0615      6.644   307.3224 1.5096e-01     4.2592      6.546      9.495    11.2311 0.0000e+00
      6.691      0.073     6.3137     57.546     30.977  22.438555     2.0756      6.644   307.3022 1.5762e-01     4.2172      6.563      9.519    11.2269 0.0000e+00
      6.706      0.072     6.3014     57.428     30.965  22.427224     2.0635      6.644   307.3537 1.4372e-01     4.1462      6.575      9.536    11.2224 0.0000e+00
      6.724      0.070     6.2898     57.318     30.985  22.439931     2.0247      6.643   307.4282 1.3816e-01     4.1335      6.592      9.560    11.2200 0.0000e+00
      6.744      0.069     6.2767     57.195     31.023  22.465221     2.0017      6.642   307.4287 1.4591e-01     4.1545      6.616      9.594    11.2191 0.0000e+00
      6.764      0.069     6.2631     57.065     31.046  22.479073     1.9979      6.642   307.4464 1.3674e-01     4.1568      6.635      9.622    11.2151 0.0000e+00
      6.780      0.068     6.2517     56.957     31.051  22.480447     1.9974      6.642   307.4707 1.2681e-01     4.1308      6.649      9.644    11.2108 0.0000e+00
      6.796      0.067     6.2397     56.846     31.055  22.481832     2.0036      6.642   307.5493 1.2608e-01     4.1149      6.665      9.667    11.2077 0.0000e+00
      6.813      0.069     6.2188     56.652     31.075  22.495817     2.0087      6.641   307.7949 1.2852e-01     4.1473      6.682      9.691    11.2043 0.0000e+00
      6.829      0.074     6.1919     56.402     31.116  22.522575     2.0050      6.639   308.0307 1.3087e-01     4.1871      6.697      9.713    11.2001 0.0000e+00
      6.844      0.079     6.1677     56.172     31.162  22.551424     2.0041      6.636   308.1637 1.2853e-01     4.1996      6.709      9.732    11.1961 0.0000e+00
      6.865      0.081     6.1482     55.985     31.222  22.590685     2.0346      6.634   308.1982 1.2593e-01     4.2071      6.729      9.761    11.1947 0.0000e+00
      6.893      0.081     6.1300     55.814     31.262  22.616372     2.0890      6.634   308.1037 1.2569e-01     4.2162      6.760      9.805    11.1946 0.0000e+00
      6.920      0.078     6.1114     55.642     31.252  22.608065     2.1200      6.634   308.1400 1.2583e-01     4.2180      6.789      9.847    11.1910 0.0000e+00
      6.940      0.076     6.0921     55.464     31.266  22.617213     2.1239      6.631   308.5511 1.2685e-01     4.1990      6.808      9.875    11.1823 0.0000e+00
      6.955      0.078     6.0716     55.272     31.334  22.663490     2.0810      6.623   309.1172 1.2774e-01     4.1691      6.821      9.895    11.1739 0.0000e+00
      6.965      0.084     6.0495     55.059     31.425  22.723210     1.9970      6.614   309.3920 1.2681e-01     4.1612      6.830      9.907    11.1691 0.0000e+00
      6.978      0.091     6.0247     54.816     31.499  22.767922     1.9539      6.608   309.3777 1.2581e-01     4.1952      6.837      9.917    11.1669 0.0000e+00
      7.004      0.096     5.9977     54.552     31.500  22.759704     1.9459      6.604   309.2893 1.2575e-01     4.2147      6.862      9.953    11.1668 0.0000e+00
      7.044      0.097     5.9673     54.263     31.496  22.750806     1.9366      6.602   309.2698 1.2574e-01     4.2138      6.909     10.020    11.1642 0.0000e+00
      7.082      0.097     5.9307     53.927     31.549  22.787291     1.9341      6.599   309.4856 1.2567e-01     4.2756      6.952     10.083    11.1539 0.0000e+00
      7.106      0.096     5.8882     53.539     31.595  22.819937     1.9341      6.596   309.7469 1.2566e-01     4.3516      6.974     10.115    11.1388 0.0000e+00
      7.117      0.091     5.8440     53.131     31.611  22.828104     1.9352      6.594   309.8480 1.2570e-01     4.3999      6.979     10.122    11.1228 0.0000e+00
      7.129      0.086     5.7990     52.714     31.609  22.822551     1.9483      6.594   309.7630 1.2575e-01     4.4624      6.985     10.131    11.1112 0.0000e+00
      7.152      0.083     5.7533     52.294     31.603  22.816276     1.9734      6.594   309.6655 1.2578e-01     4.5579      7.010     10.168    11.1120 0.0000e+00
      7.182      0.084     5.7091     51.891     31.603  22.815710     1.9995      6.594   309.7870 1.2576e-01     4.6391      7.045     10.217    11.1129 0.0000e+00
      7.210      0.086     5.6657     51.497     31.602  22.815711     2.0155      6.594   309.9416 1.2576e-01     4.6514      7.074     10.259    11.1048 0.0000e+00
      7.230      0.086     5.6224     51.107     31.601  22.816294     1.9921      6.593   309.9856 1.2576e-01     4.6456      7.093     10.287    11.0982 0.0000e+00
      7.246      0.084     5.5838     50.762     31.606  22.822760     1.9372      6.591   310.0601 1.2574e-01     4.6907      7.105     10.305    11.0947 0.0000e+00
      7.264      0.084     5.5533     50.489     31.613  22.830404     1.9127      6.587   310.3270 1.2575e-01     4.7693      7.122     10.329    11.0936 0.0000e+00
      7.286      0.089     5.5318     50.292     31.634  22.845238     1.9253      6.583   310.7171 1.2584e-01     4.8337      7.146     10.364    11.0951 0.0000e+00
      7.309      0.096     5.5175     50.155     31.681  22.875145     1.9333      6.580   310.9914 1.2584e-01     4.8595      7.168     10.397    11.0975 0.0000e+00
      7.334      0.103     5.5088     50.068     31.686  22.874575     1.9270      6.576   311.0626 1.2577e-01     5.0195      7.189     10.427    11.1028 0.0000e+00
      7.363      0.105     5.5102     50.075     31.640  22.838347     1.9217      6.572   310.9751 1.2572e-01     5.3647      7.219     10.471    11.1093 0.0000e+00
      7.395      0.102     5.5217     50.178     31.613  22.818012     1.9247      6.571   310.8799 1.2569e-01     5.5837      7.253     10.520    11.1084 0.0000e+00
      7.425      0.095     5.5360     50.308     31.616  22.819159     1.9263      6.571   310.8579 1.2570e-01     5.6539      7.283     10.563    11.0992 0.0000e+00
      7.450      0.086     5.5460     50.401     31.661  22.852210     1.9231      6.573   310.8811 1.2570e-01     5.6949      7.308     10.600    11.0915 0.0000e+00
      7.468      0.077     5.5504     50.441     31.727  22.900214     1.9233      6.575   310.9029 1.2565e-01     5.6829      7.326     10.626    11.0875 0.0000e+00
      7.482      0.069     5.5512     50.447     31.715  22.891702     1.9278      6.575   310.8631 1.2567e-01     5.6611      7.337     10.642    11.0854 0.0000e+00
      7.496      0.064     5.5480     50.417     31.694  22.876262     1.9320      6.574   310.8306 1.2572e-01     5.6449      7.350     10.660    11.0857 0.0000e+00
      7.511      0.064     5.5426     50.368     31.732  22.903980     1.9460      6.573   310.8538 1.2576e-01     5.6097      7.365     10.682    11.0871 0.0000e+00
      7.528      0.068     5.5370     50.317     31.740  22.909416     1.9783      6.572   310.7997 1.2579e-01     5.6005      7.381     10.706    11.0875 0.0000e+00
      7.546      0.073     5.5329     50.279     31.698  22.878500     2.0010      6.572   310.6917 1.2580e-01     5.6561      7.401     10.734    11.0869 0.0000e+00
      7.564      0.078     5.5318     50.268     31.656  22.847604     2.0000      6.571   310.6675 1.2578e-01     5.7023      7.418     10.758    11.0862 0.0000e+00
      7.585      0.079     5.5333     50.280     31.664  22.853270     1.9930      6.571   310.6791 1.2576e-01     5.7318      7.437     10.786    11.0863 0.0000e+00
      7.608      0.076     5.5354     50.299     31.707  22.883522     1.9905      6.572   310.6599 1.2576e-01     5.7987      7.462     10.822    11.0867 0.0000e+00
      7.631      0.069     5.5377     50.319     31.725  22.895958     1.9970      6.572   310.6067 1.2578e-01     5.8710      7.485     10.857    11.0858 0.0000e+00
      7.651      0.058     5.5409     50.348     31.698  22.876653     2.0066      6.572   310.6382 1.2583e-01     5.9040      7.505     10.885    11.0846 0.0000e+00
      7.666      0.043     5.5410     50.349     31.648  22.840568     2.0341      6.572   310.7833 1.2583e-01     5.8320      7.520     10.907    11.0836 0.0000e+00
      7.675      0.032     5.5366     50.310     31.647  22.840564     2.0810      6.572   310.8978 1.2576e-01     5.7019      7.530     10.921    11.0831 0.0000e+00
      7.677      0.028     5.5333     50.280     31.697  22.876611     2.1052      6.570   310.9909 1.2569e-01     5.6730      7.530     10.922    11.0825 0.0000e+00
      7.674      0.030     5.5337     50.284     31.724  22.895498     2.1157      6.567   311.0481 1.2562e-01     5.6962      7.524     10.912    11.0825 0.0000e+00
      7.674      0.037     5.5361     50.304     31.701  22.878468     2.1332      6.564   310.9879 1.2561e-01     5.6779      7.520     10.907    11.0828 0.0000e+00
      7.686      0.046     5.5386     50.326     31.678  22.861154     2.1706      6.561   310.9506 1.2565e-01     5.6963      7.532     10.925    11.0836 0.0000e+00
      7.709      0.056     5.5403     50.341     31.699  22.876610     2.2282      6.561   311.0272 1.2566e-01     5.7964      7.560     10.965    11.0842 0.0000e+00
      7.732      0.065     5.5423     50.358     31.698  22.874895     2.2592      6.562   311.0540 1.2569e-01     5.8819      7.585     11.002    11.0833 0.0000e+00
      7.747      0.071     5.5452     50.384     31.651  22.840419     2.2605      6.563   311.0167 1.2570e-01     5.8747      7.597     11.019    11.0819 0.0000e+00
      7.760      0.071     5.5481     50.410     31.651  22.840664     2.2435      6.563   311.0058 1.2567e-01     5.7700      7.608     11.034    11.0809 0.0000e+00
      7.778      0.068     5.5475     50.405     31.702  22.877855     2.2104      6.562   310.9224 1.2568e-01     5.6533      7.627     11.062    11.0805 0.0000e+00
      7.798      0.064     5.5429     50.363     31.746  22.909190     2.2006      6.563   310.7828 1.2571e-01     5.6230      7.648     11.091    11.0804 0.0000e+00
      7.817      0.062     5.5366     50.306     31.736  22.902106     2.2078      6.563   310.6940 1.2571e-01     5.6480      7.666     11.120    11.0801 0.0000e+00
      7.834      0.059     5.5310     50.254     31.672  22.855687     2.1967      6.564   310.6235 1.2567e-01     5.6807      7.684     11.144    11.0797 0.0000e+00
      7.846      0.055     5.5288     50.234     31.673  22.855817     2.1854      6.566   310.6190 1.2562e-01     5.6829      7.694     11.159    11.0794 0.0000e+00
      7.856      0.054     5.5282     50.228     31.739  22.903677     2.1903      6.568   310.6395 1.2564e-01     5.6754      7.703     11.174    11.0793 0.0000e+00
      7.867      0.055     5.5261     50.208     31.771  22.926477     2.2004      6.568   310.6135 1.2571e-01     5.6812      7.714     11.189    11.0794 0.0000e+00
      7.881      0.057     5.5255     50.202     31.792  22.941037     2.1885      6.568   310.5617 1.2580e-01     5.6625      7.727     11.207    11.0792 0.0000e+00
      7.897      0.058     5.5267     50.211     31.809  22.952759     2.1472      6.567   310.5303 1.2582e-01     5.6316      7.744     11.231    11.0787 0.0000e+00
      7.915      0.057     5.5256     50.200     31.794  22.941233     2.1145      6.567   310.5777 1.2572e-01     5.6132      7.762     11.257    11.0783 0.0000e+00
      7.933      0.055     5.5226     50.171     31.778  22.928653     2.1151      6.568   310.5330 1.2563e-01     5.6223      7.781     11.285    11.0777 0.0000e+00
      7.948      0.051     5.5200     50.146     31.778  22.927614     2.1266      6.568   310.4205 1.2562e-01     5.6818      7.796     11.307    11.0771 0.0000e+00
      7.958      0.046     5.5185     50.131     31.780  22.928674     2.1261      6.568   310.4220 1.2564e-01     5.7828      7.805     11.320    11.0761 0.0000e+00
      7.967      0.041     5.5165     50.112     31.799  22.941466     2.1270      6.569   310.4649 1.2564e-01     5.8666      7.812     11.330    11.0746 0.0000e+00
      7.975      0.036     5.5120     50.071     31.818  22.955306     2.1282      6.569   310.4225 1.2566e-01     5.9023      7.821     11.343    11.0730 0.0000e+00
      7.985      0.035     5.5065     50.022     31.837  22.969043     2.1123      6.569   310.3390 1.2567e-01     5.8786      7.831     11.358    11.0717 0.0000e+00
      7.994      0.038     5.5020     49.981     31.853  22.980597     2.0456      6.570   310.4876 1.2567e-01     5.7936      7.840     11.371    11.0710 0.0000e+00
      8.001      0.044     5.4952     49.918     31.836  22.968034     1.9371      6.569   310.7571 1.2569e-01     5.6978      7.846     11.380    11.0697 0.0000e+00
      8.009      0.050     5.4899     49.867     31.804  22.944109     1.8758      6.565   310.8445 1.2570e-01     5.6368      7.853     11.390    11.0694 0.0000e+00
      8.022      0.055     5.4931     49.892     31.809  22.945264     1.8653      6.561   310.8558 1.2569e-01     5.6353      7.865     11.407    11.0703 0.0000e+00
      8.042      0.057     5.4943     49.900     31.863  22.981991     1.8752      6.557   310.8933 1.2573e-01     5.6487      7.884     11.435    11.0706 0.0000e+00
      8.064      0.057     5.4918     49.875     31.900  23.007271     1.9120      6.556   310.9540 1.2574e-01     5.6457      7.910     11.473    11.0704 0.0000e+00
      8.081      0.056     5.4948     49.901     31.886  22.996978     1.9332      6.556   311.0745 1.2568e-01     5.6608      7.929     11.500    11.0685 0.0000e+00
      8.091      0.056     5.4987     49.936     31.870  22.984511     1.9299      6.554   311.2313 1.2568e-01     5.6782      7.936     11.510    11.0644 0.0000e+00
      8.099      0.055     5.4982     49.929     31.870  22.983491     1.9179      6.552   311.3009 1.2574e-01     5.7340      7.941     11.517    11.0611 0.0000e+00
      8.109      0.054     5.4944     49.893     31.873  22.984647     1.8891      6.551   311.3138 1.2577e-01     5.8165      7.949     11.529    11.0591 0.0000e+00
      8.126      0.054     5.4871     49.824     31.893  22.998489     1.8666      6.551   311.3017 1.2575e-01     5.8521      7.967     11.555    11.0578 0.0000e+00
      8.146      0.055     5.4777     49.738     31.929  23.023881     1.8656      6.551   311.2402 1.2575e-01     5.8901      7.991     11.589    11.0575 0.0000e+00
      8.162      0.058     5.4697     49.666     31.949  23.037723     1.8868      6.550   311.2581 1.2576e-01     5.9707      8.007     11.613    11.0564 0.0000e+00
      8.173      0.061     5.4624     49.599     31.950  23.038877     1.9115      6.549   311.3457 1.2573e-01     6.0640      8.015     11.624    11.0542 0.0000e+00
      8.183      0.062     5.4547     49.527     31.950  23.037837     1.9165      6.547   311.3541 1.2568e-01     6.1017      8.024     11.637    11.0521 0.0000e+00
      8.198      0.061     5.4493     49.476     31.934  23.025151     1.9194      6.545   311.2734 1.2570e-01     6.0914      8.038     11.658    11.0513 0.0000e+00
      8.219      0.058     5.4463     49.449     31.917  23.012466     1.9459      6.545   311.2296 1.2579e-01     6.0922      8.059     11.689    11.0520 0.0000e+00
      8.241      0.053     5.4430     49.419     31.916  23.011426     1.9807      6.545   311.2549 1.2583e-01     6.0808      8.084     11.725    11.0519 0.0000e+00
      8.257      0.048     5.4368     49.363     31.917  23.012581     1.9997      6.546   311.4069 1.2578e-01     6.0762      8.102     11.751    11.0498 0.0000e+00
      8.265      0.044     5.4268     49.272     31.936  23.026423     2.0102      6.544   311.6050 1.2572e-01     6.0975      8.107     11.759    11.0481 0.0000e+00
      8.268      0.043     5.4181     49.193     31.971  23.051826     2.0167      6.540   311.5850 1.2565e-01     6.0945      8.107     11.760    11.0474 0.0000e+00
      8.271      0.047     5.4122     49.140     31.991  23.065782     2.0320      6.535   311.4233 1.2565e-01     6.0705      8.109     11.761    11.0474 0.0000e+00
      8.282      0.055     5.4060     49.082     31.996  23.068196     2.0574      6.531   311.2848 1.2576e-01     6.0510      8.117     11.772    11.0483 0.0000e+00
      8.302      0.066     5.4019     49.042     32.016  23.081008     2.0753      6.528   311.2006 1.2580e-01     6.0728      8.141     11.806    11.0490 0.0000e+00
      8.326      0.076     5.4024     49.042     32.037  23.093717     2.0828      6.528   311.0937 1.2572e-01     6.1200      8.166     11.844    11.0491 0.0000e+00
      8.348      0.081     5.4037     49.049     32.042  23.094883     2.1114      6.529   310.9388 1.2565e-01     6.0718      8.186     11.873    11.0481 0.0000e+00
      8.371      0.081     5.4030     49.039     32.045  23.095113     2.1729      6.529   310.7912 1.2562e-01     5.9485      8.209     11.907    11.0463 0.0000e+00
      8.393      0.077     5.4012     49.021     32.049  23.096496     2.2106      6.530   310.5994 1.2566e-01     5.8796      8.231     11.939    11.0441 0.0000e+00
      8.411      0.073     5.3960     48.972     32.071  23.111600     2.2091      6.531   310.4262 1.2570e-01     5.8792      8.248     11.962    11.0402 0.0000e+00
      8.428      0.072     5.3860     48.881     32.126  23.150750     2.2190      6.531   310.3324 1.2570e-01     5.8830      8.264     11.988    11.0355 0.0000e+00
      8.444      0.073     5.3735     48.766     32.180  23.188945     2.2469      6.530   310.3250 1.2565e-01     5.8654      8.282     12.011    11.0326 0.0000e+00
      8.459      0.076     5.3604     48.645     32.186  23.192505     2.2622      6.528   310.3377 1.2565e-01     5.8794      8.294     12.029    11.0311 0.0000e+00
      8.478      0.080     5.3466     48.519     32.189  23.193798     2.2664      6.526   310.3139 1.2569e-01     5.9314      8.312     12.055    11.0302 0.0000e+00
      8.503      0.082     5.3331     48.394     32.205  23.204578     2.2972      6.526   310.2945 1.2569e-01     6.0053      8.337     12.092    11.0293 0.0000e+00
      8.528      0.083     5.3211     48.283     32.195  23.195870     2.3585      6.527   310.1900 1.2566e-01     6.0707      8.364     12.130    11.0281 0.0000e+00
      8.550      0.083     5.3117     48.196     32.224  23.215472     2.3923      6.527   309.9960 1.2570e-01     6.0811      8.387     12.164    11.0267 0.0000e+00
      8.570      0.083     5.3038     48.121     32.365  23.314622     2.3938      6.525   309.8427 1.2570e-01     6.1001      8.405     12.190    11.0251 0.0000e+00
      8.587      0.083     5.2946     48.031     32.546  23.442393     2.3950      6.522   309.7125 1.2566e-01     6.1176      8.421     12.213    11.0231 0.0000e+00
      8.606      0.084     5.2841     47.928     32.796  23.617588     2.3980      6.521   309.6265 1.2568e-01     6.0801      8.439     12.239    11.0212 0.0000e+00
      8.628      0.087     5.2726     47.818     33.206  23.909204     2.4013      6.518   309.6632 1.2565e-01     6.0427      8.461     12.272    11.0197 0.0000e+00
      8.653      0.089     5.2602     47.699     33.581  24.174854     2.4079      6.516   309.7257 1.2558e-01     6.0619      8.486     12.308    11.0178 0.0000e+00
      8.678      0.090     5.2460     47.562     33.748  24.290023     2.4134      6.515   309.6937 1.2559e-01     6.0989      8.510     12.343    11.0123 0.0000e+00
      8.703      0.088     5.2279     47.388     33.750  24.285876     2.4213      6.513   309.5344 1.2563e-01     6.1239      8.535     12.379    11.0039 0.0000e+00
      8.726      0.083     5.2041     47.163     33.710  24.251690     2.4394      6.511   309.2619 1.2565e-01     6.1811      8.558     12.412    10.9992 0.0000e+00
      8.747      0.078     5.1725     46.869     33.725  24.257610     2.4487      6.509   308.9808 1.2570e-01     6.2403      8.578     12.442    10.9940 0.0000e+00
      8.766      0.075     5.1330     46.506     33.780  24.293952     2.4510      6.508   308.8033 1.2574e-01     6.2603      8.597     12.469    10.9845 0.0000e+00
      8.782      0.074     5.0855     46.071     33.895  24.373655     2.4854      6.505   308.7499 1.2574e-01     6.3614      8.614     12.494    10.9757 0.0000e+00
      8.796      0.075     5.0308     45.571     34.018  24.459410     2.5439      6.501   308.7649 1.2570e-01     6.5782      8.625     12.510    10.9675 0.0000e+00
      8.813      0.076     4.9752     45.061     34.088  24.505446     2.5790      6.497   308.6415 1.2569e-01     6.7152      8.639     12.531    10.9599 0.0000e+00
      8.836      0.076     4.9221     44.572     34.155  24.549334     2.5965      6.495   308.2900 1.2572e-01     6.7356      8.665     12.568    10.9558 0.0000e+00
      8.861      0.076     4.8723     44.117     34.244  24.609118     2.6181      6.494   307.6981 1.2577e-01     6.8861      8.692     12.606    10.9532 0.0000e+00
      8.883      0.074     4.8298     43.729     34.314  24.656873     2.6379      6.493   306.5616 1.2579e-01     7.1923      8.712     12.636    10.9492 0.0000e+00
      8.901      0.071     4.7968     43.426     34.352  24.682310     2.6438      6.492   304.0986 1.2577e-01     7.3553      8.730     12.662    10.9421 0.0000e+00
      8.916      0.067     4.7720     43.200     34.415  24.726196     2.6429      6.489   300.4606 1.2576e-01     7.3616      8.744     12.682    10.9337 0.0000e+00
      8.930      0.067     4.7516     43.014     34.528  24.806552     2.6361      6.486   297.3341 1.2579e-01     7.2987      8.757     12.702    10.9294 0.0000e+00
      8.945      0.070     4.7306     42.821     34.651  24.892001     2.6074      6.482   295.3786 1.2576e-01     7.1747      8.771     12.721    10.9259 0.0000e+00
      8.961      0.075     4.7108     42.637     34.714  24.933968     2.5804      6.478   293.9377 1.2565e-01     7.1135      8.785     12.742    10.9222 0.0000e+00
      8.982      0.078     4.6926     42.468     34.716  24.933025     2.5856      6.475   292.5605 1.2560e-01     7.1085      8.806     12.772    10.9211 0.0000e+00
      9.007      0.080     4.6706     42.264     34.735  24.944089     2.6531      6.474   291.2030 1.2569e-01     7.2064      8.833     12.811    10.9200 0.0000e+00
      9.032      0.081     4.6474     42.052     34.821  25.004253     2.7620      6.474   290.0002 1.2575e-01     7.4116      8.859     12.849    10.9166 0.0000e+00
      9.052      0.081     4.6296     41.890     34.941  25.089032     2.8260      6.474   289.0298 1.2570e-01     7.5138      8.878     12.877    10.9109 0.0000e+00
      9.068      0.080     4.6127     41.735     35.019  25.143760     2.8400      6.472   288.3318 1.2567e-01     7.5264      8.893     12.898    10.9060 0.0000e+00
      9.084      0.077     4.5929     41.553     35.041  25.158027     2.8476      6.469   287.8424 1.2570e-01     7.5943      8.907     12.919    10.9029 0.0000e+00
      9.104      0.074     4.5733     41.373     35.011  25.134549     2.8814      6.466   287.4139 1.2574e-01     7.8468      8.927     12.947    10.9005 0.0000e+00
      9.127      0.070     4.5557     41.213     34.983  25.113854     2.9367      6.465   286.9370 1.2579e-01     8.2294      8.951     12.982    10.8992 0.0000e+00
      9.149      0.066     4.5395     41.067     35.050  25.161770     2.9641      6.465   285.9475 1.2582e-01     8.4359      8.975     13.016    10.8975 0.0000e+00
      9.166      0.063     4.5229     40.917     35.200  25.269453     2.9646      6.464   284.0543 1.2583e-01     8.4522      8.991     13.041    10.8946 0.0000e+00
      9.176      0.062     4.5047     40.752     35.382  25.399976     2.9523      6.464   281.5124 1.2583e-01     8.5480      9.000     13.054    10.8921 0.0000e+00
      9.184      0.064     4.4870     40.590     35.570  25.533562     2.9255      6.462   278.7889 1.2581e-01     8.7398      9.004     13.060    10.8911 0.0000e+00
      9.198      0.069     4.4736     40.466     35.686  25.614779     2.9074      6.458   276.0756 1.2576e-01     8.8182      9.017     13.077    10.8909 0.0000e+00
      9.219      0.073     4.4649     40.384     35.697  25.620041     2.9074      6.455   273.3134 1.2572e-01     8.8242      9.039     13.110    10.8921 0.0000e+00
      9.245      0.075     4.4584     40.323     35.667  25.597186     2.8888      6.452   270.8586 1.2573e-01     8.8736      9.066     13.149    10.8920 0.0000e+00
      9.270      0.074     4.4518     40.262     35.662  25.592416     2.8475      6.450   269.0233 1.2573e-01     8.9575      9.094     13.190    10.8898 0.0000e+00
      9.290      0.068     4.4439     40.190     35.710  25.625848     2.8317      6.450   267.6426 1.2569e-01     9.0152      9.113     13.218    10.8872 0.0000e+00
      9.303      0.059     4.4348     40.107     35.791  25.683945     2.8356      6.451   266.4677 1.2566e-01     8.9911      9.123     13.232    10.8828 0.0000e+00
      9.315      0.051     4.4249     40.017     35.935  25.786920     2.8211      6.452   265.3146 1.2565e-01     8.9707      9.135     13.249    10.8802 0.0000e+00
      9.326      0.047     4.4156     39.932     36.119  25.918503     2.7942      6.452   264.2831 1.2571e-01     8.9824      9.147     13.267    10.8792 0.0000e+00
      9.334      0.049     4.4072     39.854     36.154  25.941528     2.7770      6.452   263.4610 1.2576e-01     9.0106      9.154     13.277    10.8781 0.0000e+00
      9.343      0.054     4.3969     39.759     35.975  25.811333     2.7688      6.449   262.7741 1.2572e-01     9.0378      9.162     13.288    10.8775 0.0000e+00
      9.356      0.060     4.3844     39.643     35.703  25.614213     2.7504      6.446   262.1732 1.2564e-01     9.1281      9.173     13.305    10.8772 0.0000e+00
      9.374      0.066     4.3732     39.539     35.407  25.399468     2.7195      6.444   261.5299 1.2562e-01     9.3382      9.191     13.331    10.8768 0.0000e+00
      9.396      0.071     4.3638     39.451     35.108  25.183139     2.7082      6.443   260.8461 1.2567e-01     9.4731      9.213     13.364    10.8747 0.0000e+00
      9.417      0.074     4.3543     39.362     34.809  24.966849     2.7150      6.443   260.1866 1.2569e-01     9.4779      9.236     13.396    10.8715 0.0000e+00
      9.437      0.073     4.3458     39.282     34.604  24.816041     2.7188      6.443   259.4069 1.2571e-01     9.4574      9.256     13.424    10.8685 0.0000e+00
      9.455      0.068     4.3397     39.221     34.615  24.820025     2.7083      6.442   258.4737 1.2573e-01     9.4079      9.272     13.448    10.8661 0.0000e+00
      9.473      0.060     4.3358     39.181     34.802  24.951515     2.6708      6.442   257.5069 1.2573e-01     9.3068      9.290     13.473    10.8637 0.0000e+00
      9.490      0.053     4.3370     39.190     35.150  25.199547     2.6420      6.443   256.5791 1.2573e-01     9.2121      9.309     13.501    10.8606 0.0000e+00
      9.502      0.048     4.3452     39.264     35.528  25.469762     2.6449      6.445   255.6886 1.2574e-01     9.2077      9.321     13.519    10.8554 0.0000e+00
      9.510      0.046     4.3600     39.399     35.642  25.552000     2.6964      6.445   254.8271 1.2580e-01     9.3149      9.326     13.526    10.8486 0.0000e+00
      9.517      0.047     4.3818     39.595     35.741  25.622450     2.7874      6.442   254.0787 1.2581e-01     9.4405      9.332     13.534    10.8440 0.0000e+00
      9.527      0.050     4.4066     39.818     36.097  25.877106     2.8353      6.439   253.4368 1.2574e-01     9.4741      9.341     13.548    10.8422 0.0000e+00
      9.540      0.054     4.4277     40.007     36.398  26.091285     2.8433      6.438   252.7445 1.2568e-01     9.4475      9.354     13.567    10.8416 0.0000e+00
      9.558      0.056     4.4411     40.127     36.524  26.180266     2.8931      6.438   251.9885 1.2568e-01     9.3328      9.372     13.591    10.8424 0.0000e+00
      9.578      0.056     4.4448     40.158     36.807  26.381517     2.9879      6.437   251.2652 1.2569e-01     9.1552      9.395     13.626    10.8428 0.0000e+00
      9.595      0.057     4.4373     40.089     37.585  26.937201     3.0429      6.436   250.6244 1.2569e-01     9.0701      9.414     13.653    10.8414 0.0000e+00
      9.605      0.059     4.4192     39.917     39.356  28.200238     3.0336      6.435   250.0918 1.2571e-01     9.0370      9.421     13.663    10.8391 0.0000e+00
      9.613      0.063     4.3928     39.655     42.921  30.730658     2.9761      6.433   249.5574 1.2572e-01     9.0602      9.426     13.671    10.8369 0.0000e+00
      9.626      0.067     4.3612     39.325     47.780  34.161487     2.8909      6.431   248.9808 1.2572e-01     9.1676      9.436     13.684    10.8354 0.0000e+00
      9.646      0.071     4.3264     38.960     52.150  37.225967     2.8485      6.429   248.3688 1.2569e-01     9.2364      9.458     13.716    10.8343 0.0000e+00
      9.672      0.075     4.2832     38.524     55.614  39.642212     2.8494      6.426   247.5792 1.2565e-01     9.2510      9.486     13.759    10.8315 0.0000e+00
      9.697      0.076     4.2205     37.924     58.853  41.901837     2.8466      6.422   246.8323 1.2563e-01     9.2525      9.512     13.796    10.8094 0.0000e+00
      9.716      0.075     4.1200     36.991     61.356  43.641802     2.8519      6.420   246.3935 1.2561e-01     9.2540      9.530     13.821    10.7538 0.0000e+00
      9.730      0.070     3.9571     35.505     62.756  44.602891     2.8768      6.418   245.9737 1.2566e-01     9.2389      9.541     13.838    10.6872 0.0000e+00
      9.745      0.065     3.7116     33.286     63.721  45.260681     2.8991      6.415   245.4562 1.2575e-01     9.2528      9.555     13.858    10.6353 0.0000e+00
      9.763      0.060     3.3761     30.264     64.259  45.620969     2.9101      6.412   245.0404 1.2578e-01     9.3000      9.574     13.887    10.5965 0.0000e+00
      9.780      0.056     2.9606     26.532     64.422  45.717808     2.9365      6.407   244.6459 1.2573e-01     9.3822      9.592     13.911    10.5613 0.0000e+00
      9.794      0.052     2.4866     22.278     64.731  45.923075     2.9887      6.401   244.1275 1.2565e-01     9.5756      9.604     13.929    10.5313 0.0000e+00
      9.807      0.047     1.9806     17.742     65.756  46.641015     3.0257      6.393   243.5050 1.2562e-01     9.7160      9.618     13.950    10.5110 0.0000e+00
      9.817      0.045     1.4680     13.148     68.101  48.296625     3.0348      6.382   242.7977 1.2565e-01     9.7070      9.629     13.966    10.4943 0.0000e+00
      9.825      0.045     0.9858      8.828     71.045  50.367805     3.0164      6.368   242.2009 1.2570e-01     9.6491      9.635     13.975    10.4795 0.0000e+00
      9.834      0.048     0.5784      5.177     73.538  52.104740     2.9788      6.358   241.7092 1.2572e-01     9.5958      9.642     13.985    10.4685 0.0000e+00
      9.845      0.051     0.2609      2.334     75.511  53.468023     2.9656      6.351   240.9823 1.2569e-01     9.5812      9.651     13.998    10.4613 0.0000e+00
      9.860      0.053     0.0259      0.232     76.399  54.071804     2.9763      6.347   239.9518 1.2565e-01     9.6253      9.668     14.022    10.4592 0.0000e+00
      9.880      0.056    -0.1305     -1.167     76.944  54.445772     3.0070      6.342   238.7992 1.2565e-01     9.7322      9.689     14.052    10.4499 0.0000e+00
      9.896      0.061    -0.2147     -1.919     83.038  58.752594     3.0612      6.336   237.8019 1.2567e-01     9.8360      9.707     14.078    10.4255 0.0000e+00
      9.908      0.065    -0.2449     -2.189     96.278  68.108105     3.0977      6.326   237.1000 1.2565e-01     9.8738      9.717     14.093    10.3998 0.0000e+00
      9.920      0.067    -0.2417     -2.160    107.782  76.210768     3.1002      6.316   236.6794 1.2559e-01     9.8837      9.725     14.105    10.3818 0.0000e+00
      9.937      0.067    -0.2219     -1.982    112.657  79.601665     3.0912      6.307   236.3297 1.2561e-01     9.9862      9.743     14.130    10.3750 0.0000e+00
      9.960      0.066    -0.1908     -1.703    112.691  79.572420     3.0901      6.302   235.8836 1.2573e-01    10.1677      9.768     14.168    10.3765 0.0000e+00
      9.982      0.062    -0.1521     -1.357    111.162  78.467018     3.0869      6.300   235.5010 1.2579e-01    10.2776      9.790     14.199    10.3732 0.0000e+00
      9.999      0.056    -0.1103     -0.984    111.689  78.841278     3.0884      6.299   235.1454 1.2574e-01    10.3079      9.806     14.223    10.3567 0.0000e+00
     10.011      0.049    -0.0669     -0.597    114.791  81.042157     3.1456      6.299   234.7675 1.2572e-01    10.2594      9.819     14.241    10.3269 0.0000e+00
     10.019      0.043    -0.0288     -0.257    121.966  86.105437     3.2353      6.299   234.4596 1.2575e-01    10.1479      9.826     14.251    10.2972 0.0000e+00
     10.025      0.040     0.0027      0.023    133.327  94.081741     3.2820      6.299   234.0899 1.2577e-01    10.0890      9.830     14.257    10.2856 0.0000e+00
     10.033      0.040     0.0333      0.296    144.899 102.128843     3.2877      6.294   233.5668 1.2579e-01    10.0970      9.838     14.269    10.2917 0.0000e+00
     10.044      0.044     0.0623      0.555    154.715 108.851527     3.2957      6.285   232.9532 1.2577e-01    10.1228      9.849     14.285    10.2992 0.0000e+00
     10.056      0.050     0.0864      0.767    162.143 113.852770     3.3509      6.276   232.3491 1.2567e-01    10.2788      9.862     14.303    10.3024 0.0000e+00
     10.071      0.055     0.1085      0.962    166.773 116.882570     3.4408      6.269   231.9420 1.2563e-01    10.5787      9.875     14.322    10.2904 0.0000e+00
     10.086      0.058     0.1299      1.151    169.283 118.444524     3.4907      6.267   231.8169 1.2565e-01    10.7578      9.890     14.344    10.2523 0.0000e+00
     10.102      0.059     0.1497      1.326    173.298 121.130059     3.4946      6.267   231.3524 1.2566e-01    10.7964      9.907     14.369    10.1803 0.0000e+00
     10.119      0.060     0.1692      1.497    181.441 126.704692     3.4975      6.260   230.2830 1.2566e-01    11.2595      9.924     14.394    10.1045 0.0000e+00
     10.134      0.063     0.1889      1.668    190.016 132.378410     3.5247      6.246   228.6960 1.2566e-01    12.1455      9.938     14.415    10.0423 0.0000e+00
     10.146      0.067     0.2059      1.812    197.110 136.763395     3.5568      6.230   226.1884 1.2567e-01    12.5985      9.948     14.429     9.9704 0.0000e+00
     10.161      0.068     0.2199      1.927    203.149 140.272078     3.5828      6.218   223.3666 1.2569e-01    12.6473      9.961     14.447     9.9376 0.0000e+00
     10.181      0.067     0.2326      2.030    206.514 141.919753     3.8114      6.214   220.7334 1.2569e-01    13.0709      9.983     14.479     9.9410 0.0000e+00
     10.204      0.065     0.2446      2.129    207.361 141.998779     4.2446      6.216   217.8394 1.2565e-01    13.8445     10.008     14.515     9.8592 0.0000e+00
     10.224      0.061     0.2582      2.245    207.270 141.674065     4.4821      6.219   214.6171 1.2569e-01    14.2797     10.029     14.545     9.6991 0.0000e+00
     10.239      0.055     0.2702      2.347    206.996 141.377923     4.5054      6.223   211.2849 1.2575e-01    14.3659     10.043     14.567     9.5293 0.0000e+00
     10.249      0.047     0.2781      2.415    206.272 140.844648     4.5721      6.229   207.7495 1.2577e-01    14.7953     10.052     14.578     9.3406 0.0000e+00
     10.256      0.040     0.2823      2.452    205.615 140.398464     4.6912      6.236   203.7060 1.2573e-01    15.5956     10.058     14.587     9.2123 0.0000e+00
     10.264      0.035     0.2823      2.452    207.529 141.730069     4.7600      6.243   199.9942 1.2566e-01    16.0463     10.066     14.599     9.1633 0.0000e+00
     10.274      0.033     0.2800      2.432    213.138 145.513965     4.7970      6.251   197.5446 1.2565e-01    16.1247     10.076     14.614     9.1423 0.0000e+00
     10.283      0.033     0.2771      2.403    220.881 150.575464     5.0933      6.260   195.3396 1.2568e-01    16.4520     10.085     14.627     9.1362 0.0000e+00
     10.291      0.032     0.2716      2.351    228.343 155.274648     5.6316      6.269   192.4341 1.2563e-01    17.0133     10.092     14.637     9.1342 0.0000e+00
     10.299      0.031     0.2620      2.263    233.831 158.565221     5.9198      6.279   188.7430 1.2563e-01    17.2952     10.100     14.648     9.1500 0.0000e+00
     10.308      0.029     0.2523      2.176    237.157 160.454258     5.9217      6.290   185.0401 1.2573e-01    17.2971     10.109     14.662     9.1516 0.0000e+00
     10.315      0.027     0.2473      2.131    238.175 160.985843     5.6731      6.303   182.9391 1.2577e-01    17.0052     10.116     14.672     9.0990 0.0000e+00
     10.321      0.026     0.2461      2.121    237.087 160.326513     5.2125      6.316   182.0961 1.2571e-01    16.4521     10.122     14.680     9.0026 0.0000e+00
     10.328      0.024     0.2458      2.119    235.269 159.257667     4.9565      6.327   180.8703 1.2566e-01    16.1633     10.128     14.690     8.9002 0.0000e+00
     10.333      0.023     0.2439      2.105    233.719 158.352994     4.9211      6.338   179.1309 1.2566e-01    16.1383     10.134     14.698     8.8102 0.0000e+00
     10.338      0.021     0.2399      2.072    233.476 158.335988     4.8206      6.350   177.4129 1.2568e-01    16.1799     10.139     14.705     8.7708 0.0000e+00
     10.344      0.021     0.2343      2.025    234.953 159.435601     4.6328      6.363   175.4996 1.2571e-01    16.2698     10.144     14.713     8.8063 0.0000e+00
     10.349      0.020     0.2271      1.962    235.952 160.080193     4.5257      6.375   173.2055 1.2566e-01    16.3102     10.150     14.721     8.8487 0.0000e+00
     10.354      0.019     0.2194      1.896    234.575 159.099174     4.5184      6.385   170.7541 1.2559e-01    16.3321     10.154     14.727     8.8718 0.0000e+00
     10.359      0.017     0.2128      1.840    232.299 157.672331     4.5903      6.396   168.3156 1.2560e-01    16.3822     10.159     14.734     8.9076 0.0000e+00
     10.364      0.015     0.2076      1.796    231.279 157.208536     4.7238      6.408   165.8348 1.2566e-01    16.4585     10.163     14.741     8.9428 0.0000e+00
     10.368      0.013     0.2038      1.765    230.795 157.070688     4.7908      6.418   163.0426 1.2566e-01    16.5224     10.167     14.746     8.9240 0.0000e+00
     10.370      0.011     0.2018      1.748    229.625 156.389170     4.8025      6.429   159.5926 1.2565e-01    16.5134     10.170     14.750     8.8897 0.0000e+00
     10.372      0.010     0.2011      1.743    228.947 155.998008     4.7736      6.439   155.2678 1.2570e-01    16.3503     10.171     14.752     8.9259 0.0000e+00
     10.374      0.009     0.2019      1.750    230.108 156.814624     4.6906      6.449   150.5008 1.2575e-01    16.0763     10.173     14.755     8.9911 0.0000e+00
     10.377      0.009     0.2023      1.753    232.592 158.466244     4.6439      6.458   145.4057 1.2576e-01    15.9167     10.176     14.759     9.0329 0.0000e+00
     10.379      0.008     0.1989      1.723    234.846 159.926575     4.6230      6.467   141.1568 1.2576e-01    15.8240     10.178     14.762     9.0534 0.0000e+00
     10.382      0.007     0.1948      1.687    236.387 160.858129     4.3830      6.476   139.9108 1.2572e-01    15.2602     10.181     14.766     9.0688 0.0000e+00
     10.384      0.006     0.1943      1.681    237.435 161.356428     3.9467      6.483   140.4071 1.2571e-01    14.2886     10.183     14.769     9.0791 0.0000e+00
     10.385      0.006     0.1950      1.686    237.811 161.476952     3.7312      6.487   140.6190 1.2570e-01    13.8120     10.184     14.771     9.0659 0.0000e+00
     10.385 -9.990e-29 -9.990e-29 -9.990e-29 -9.990e-29 -9.990e-29 -9.990e-29 -9.990e-29 -9.990e-29 1.2566e-01 -9.990e-29     10.185     14.772     9.0450 0.0000e+00
     10.385 -9.990e-29 -9.990e-29 -9.990e-29 -9.990e-29 -9.990e-29 -9.990e-29 -9.990e-29 -9.990e-29 1.2564e-01 -9.990e-29     10.185     14.771     9.0373 0.0000e+00
     10.386 -9.990e-29 -9.990e-29 -9.990e-29 -9.990e-29 -9.990e-29 -9.990e-29 -9.990e-29 -9.990e-29 1.2562e-01 -9.990e-29     10.185     14.772     8.9754 0.0000e+00
     10.386 -9.990e-29 -9.990e-29 -9.990e-29 -9.990e-29 -9.990e-29 -9.990e-29 -9.990e-29 -9.990e-29 1.2561e-01 -9.990e-29     10.186     14.773     8.9128 0.0000e+00
