* Sea-Bird SBE19plus  Data File:
* FileName = C:\DATA\110819_fcr50_0005.hex
* Software version 2.8.0.119 SB_Terminal.dll
* Temperature SN = 7809
* Conductivity SN = 7809
* System UpLoad Time = Nov 11 2019 10:24:12
* <ApplicationData>
* <Seaterm232>
* <SoftwareVersion>2.8.0.119</SoftwareVersion>
* <BuildDate>07-Nov-2018</BuildDate>
* </Seaterm232>
* </ApplicationData>
* cast   5 08 Nov 2019 14:10:08 samples 2521 to 3324, avg = 1, stop = mag switch
# nquan = 16
# nvalues = 726                         
# units = specified
# name 0 = depFM: Depth [fresh water, m]
# name 1 = dz/dtM: Descent Rate [m/s]
# name 2 = sbeox0ML/L: Oxygen, SBE 43 [ml/l]
# name 3 = sbeox0PS: Oxygen, SBE 43 [% saturation]
# name 4 = specc: Specific Conductance [uS/cm]
# name 5 = c0uS/cm: Conductivity [uS/cm]
# name 6 = flECO-AFL: Fluorescence, WET Labs ECO-AFL/FL [mg/m^3]
# name 7 = ph: pH
# name 8 = orp: Oxidation Reduction Potential [mV]
# name 9 = par/sat/log: PAR/Logarithmic, Satlantic
# name 10 = turbWETntu0: Turbidity, WET Labs ECO [NTU]
# name 11 = prdM: Pressure, Strain Gauge [db]
# name 12 = prdE: Pressure, Strain Gauge [psi]
# name 13 = tv290C: Temperature [ITS-90, deg C]
# name 14 = density00: Density [density, kg/m^3]
# name 15 = flag:  0.000e+00
# span 0 =     -0.535,      6.567       
# span 1 =     -0.281,      0.370       
# span 2 =     4.8934,     8.0203       
# span 3 =     64.100,    102.455       
# span 4 =      0.613,     42.774       
# span 5 =   0.395385,  30.424687       
# span 6 =    -1.1905,     4.8299       
# span 7 =      5.303,      7.085       
# span 8 =   218.1493,  1240.2295       
# span 9 = 1.2365e-01, 1.2656e+03       
# span 10 =    -1.6979,   913.6194      
# span 11 =     -0.526,      6.440      
# span 12 =     -0.763,      9.340      
# span 13 =     7.2096,    11.6141      
# span 14 =   999.5636,   999.8944      
# span 15 = 0.0000e+00, 0.0000e+00      
# interval = seconds: 0.25
# start_time = Nov 08 2019 14:10:08 [Instrument's time stamp, header]
# bad_flag = -9.990e-29
# <Sensors count="9" >
#   <sensor Channel="1" >
#     <!-- Count, Temperature -->
#     <TemperatureSensor SensorID="58" >
#       <SerialNumber>7809</SerialNumber>
#       <CalibrationDate>24-Mar-19</CalibrationDate>
#       <A0>1.21792325e-003</A0>
#       <A1>2.81669265e-004</A1>
#       <A2>-1.60333336e-006</A2>
#       <A3>1.98414625e-007</A3>
#       <Slope>1.00000000</Slope>
#       <Offset>0.0000</Offset>
#     </TemperatureSensor>
#   </sensor>
#   <sensor Channel="2" >
#     <!-- Frequency 0, Conductivity -->
#     <ConductivitySensor SensorID="3" >
#       <SerialNumber>7809</SerialNumber>
#       <CalibrationDate>24-Mar-19</CalibrationDate>
#       <UseG_J>1</UseG_J>
#       <!-- Cell const and series R are applicable only for wide range sensors. -->
#       <SeriesR>0.0000</SeriesR>
#       <CellConst>2000.0000</CellConst>
#       <ConductivityType>0</ConductivityType>
#       <Coefficients equation="0" >
#         <A>0.00000000e+000</A>
#         <B>0.00000000e+000</B>
#         <C>0.00000000e+000</C>
#         <D>0.00000000e+000</D>
#         <M>0.0</M>
#         <CPcor>-9.57000000e-008</CPcor>
#       </Coefficients>
#       <Coefficients equation="1" >
#         <G>-1.00589325e+000</G>
#         <H>1.26816302e-001</H>
#         <I>-1.51560448e-004</I>
#         <J>2.67137274e-005</J>
#         <CPcor>-9.57000000e-008</CPcor>
#         <CTcor>3.2500e-006</CTcor>
#         <!-- WBOTC not applicable unless ConductivityType = 1. -->
#         <WBOTC>0.00000000e+000</WBOTC>
#       </Coefficients>
#       <Slope>1.00000000</Slope>
#       <Offset>0.00000</Offset>
#     </ConductivitySensor>
#   </sensor>
#   <sensor Channel="3" >
#     <!-- Count, Pressure, Strain Gauge -->
#     <PressureSensor SensorID="46" >
#       <SerialNumber>7809</SerialNumber>
#       <CalibrationDate>11-Mar-19</CalibrationDate>
#       <PA0>4.56561833e-002</PA0>
#       <PA1>4.85095118e-004</PA1>
#       <PA2>-2.88327090e-012</PA2>
#       <PTEMPA0>-5.48784562e+001</PTEMPA0>
#       <PTEMPA1>5.53756816e+001</PTEMPA1>
#       <PTEMPA2>-5.86727098e-001</PTEMPA2>
#       <PTCA0>5.25246745e+005</PTCA0>
#       <PTCA1>1.22304214e+001</PTCA1>
#       <PTCA2>-3.56745036e-001</PTCA2>
#       <PTCB0>2.51668750e+001</PTCB0>
#       <PTCB1>3.75000000e-004</PTCB1>
#       <PTCB2>0.00000000e+000</PTCB2>
#       <Offset>0.000000</Offset>
#     </PressureSensor>
#   </sensor>
#   <sensor Channel="4" >
#     <!-- A/D voltage 0, Oxygen, SBE 43 -->
#     <OxygenSensor SensorID="38" >
#       <SerialNumber>0434</SerialNumber>
#       <CalibrationDate>13-Apr-19</CalibrationDate>
#       <Use2007Equation>1</Use2007Equation>
#       <CalibrationCoefficients equation="0" >
#         <!-- Coefficients for Owens-Millard equation. -->
#         <Boc>0.0000</Boc>
#         <Soc>0.0000e+000</Soc>
#         <offset>0.0000</offset>
#         <Pcor>0.00e+000</Pcor>
#         <Tcor>0.0000</Tcor>
#         <Tau>0.0</Tau>
#       </CalibrationCoefficients>
#       <CalibrationCoefficients equation="1" >
#         <!-- Coefficients for Sea-Bird equation - SBE calibration in 2007 and later. -->
#         <Soc>4.2007e-001</Soc>
#         <offset>-0.6109</offset>
#         <A>-4.3656e-003</A>
#         <B> 1.7017e-004</B>
#         <C>-2.5341e-006</C>
#         <D0> 2.5826e+000</D0>
#         <D1> 1.92634e-004</D1>
#         <D2>-4.64803e-002</D2>
#         <E> 3.6000e-002</E>
#         <Tau20> 1.1800</Tau20>
#         <H1>-3.3000e-002</H1>
#         <H2> 5.0000e+003</H2>
#         <H3> 1.4500e+003</H3>
#       </CalibrationCoefficients>
#     </OxygenSensor>
#   </sensor>
#   <sensor Channel="5" >
#     <!-- A/D voltage 1, PAR/Logarithmic, Satlantic -->
#     <PARLog_SatlanticSensor SensorID="76" >
#       <SerialNumber>1122</SerialNumber>
#       <CalibrationDate>08-May-2019</CalibrationDate>
#       <a0>9.7456e-001</a0>
#       <a1>8.1640e-001</a1>
#       <Im>1.3589e+000</Im>
#       <Multiplier>1.0000e+000</Multiplier>
#     </PARLog_SatlanticSensor>
#   </sensor>
#   <sensor Channel="6" >
#     <!-- A/D voltage 2, pH -->
#     <pH_Sensor SensorID="43" >
#       <SerialNumber>0363</SerialNumber>
#       <CalibrationDate>15-Apr-19</CalibrationDate>
#       <Slope>4.5952</Slope>
#       <Offset>2.5370</Offset>
#     </pH_Sensor>
#   </sensor>
#   <sensor Channel="7" >
#     <!-- A/D voltage 3, Oxidation Reduction Potential -->
#     <OxidationReductionPotentialSensor SensorID="41" >
#       <SerialNumber>0363</SerialNumber>
#       <CalibrationDate>15-Apr-19</CalibrationDate>
#       <B>2.499480</B>
#       <M>-0.496195</M>
#       <Offset>0.0</Offset>
#     </OxidationReductionPotentialSensor>
#   </sensor>
#   <sensor Channel="8" >
#     <!-- A/D voltage 4, Fluorometer, WET Labs ECO-AFL/FL -->
#     <FluoroWetlabECO_AFL_FL_Sensor SensorID="20" >
#       <SerialNumber>FLNTURT-2496</SerialNumber>
#       <CalibrationDate>08-May-2019</CalibrationDate>
#       <ScaleFactor>5.00000000e+001</ScaleFactor>
#       <!-- Dark output -->
#       <Vblank>0.0550</Vblank>
#     </FluoroWetlabECO_AFL_FL_Sensor>
#   </sensor>
#   <sensor Channel="9" >
#     <!-- A/D voltage 5, Turbidity Meter, WET Labs, ECO-NTU -->
#     <TurbidityMeter SensorID="67" >
#       <SerialNumber>FLNTURT-2496</SerialNumber>
#       <CalibrationDate>08-May-2019</CalibrationDate>
#       <ScaleFactor>189.000000</ScaleFactor>
#       <!-- Dark output -->
#       <DarkVoltage>0.071000</DarkVoltage>
#     </TurbidityMeter>
#   </sensor>
# </Sensors>
# datcnv_date = Nov 11 2019 10:29:33, 7.26.7.129 [datcnv_vars = 15]
# datcnv_in = C:\DATA\110819_fcr45.hex C:\DATA\SBE19plusV2_7809.xmlcon
# datcnv_skipover = 0
# datcnv_ox_hysteresis_correction = yes
# datcnv_ox_tau_correction = yes
# filter_date = Nov 11 2019 10:29:59, 7.26.7.129
# filter_in = C:\DATA\110819_fcr45.cnv
# filter_low_pass_tc_A = 0.030
# filter_low_pass_tc_B = 0.150
# filter_low_pass_A_vars = sbeox0ML/L prdM prdE tv290C density00
# filter_low_pass_B_vars = depFM dz/dtM sbeox0PS specc c0uS/cm flECO-AFL ph orp par/sat/log turbWETntu0
# alignctd_date = Nov 11 2019 10:30:18, 7.26.7.129
# alignctd_in = C:\DATA\110819_fcr45.cnv
# alignctd_adv = dz/dtM 1.000, sbeox0PS 1.000, specc 1.000, c0uS/cm 1.000, flECO-AFL 1.000, ph 1.000, orp 1.000, turbWETntu0 1.000                                                                                                   
# file_type = ascii
*END*
     -0.535     -0.001     8.0190     94.958      0.649   0.418719    -0.1593      5.303  1240.2295 1.0941e+03    -0.5459     -0.524     -0.760     7.2096   999.8944 0.0000e+00
     -0.535     -0.001     8.0173     94.954      0.649   0.418725    -0.1725      5.326  1240.2294 1.0631e+03    -0.5621     -0.525     -0.761     7.2134   999.8942 0.0000e+00
     -0.535      0.000     8.0203     94.935      0.613   0.395833    -0.1720      5.341  1240.2280 1.0264e+03    -0.5634     -0.526     -0.763     7.2179   999.8940 0.0000e+00
     -0.535      0.000     8.0196     94.926      0.613   0.395385    -0.1611      5.348  1240.2133 1.0764e+03    -0.4949     -0.525     -0.762     7.2250   999.8937 0.0000e+00
     -0.535      0.000     8.0195     94.927      0.641   0.413311    -0.1619      5.352  1240.0509 1.2072e+03    -0.3897     -0.526     -0.761     7.2335   999.8932 0.0000e+00
     -0.535      0.000     8.0187     94.931      0.752   0.485852    -0.1734      5.351  1238.2652 1.2656e+03    -0.3728     -0.525     -0.762     7.2397   999.8929 0.0000e+00
     -0.535      0.002     8.0141     94.933      2.551   1.652640    -0.1959      5.362  1218.6221 1.2004e+03    -0.3890     -0.525     -0.761     7.2434   999.8927 0.0000e+00
     -0.535      0.010     8.0140     94.913      9.725   6.346400    -0.4428      5.551  1002.5481 1.1454e+03    -0.6845     -0.525     -0.762     7.2449   999.8927 0.0000e+00
     -0.535      0.030     8.0148     94.830     23.851  15.786800    -0.9126      5.996   571.7691 9.7371e+02    -1.3240     -0.525     -0.761     7.2420   999.8929 0.0000e+00
     -0.534      0.065     8.0150     94.705     37.547  25.256902    -1.1774      6.456   284.4542 5.8402e+02    -1.6979     -0.525     -0.760     7.2426   999.8927 0.0000e+00
     -0.529      0.111     8.0154     94.593     42.774  29.271205    -1.1905      6.761   226.1511 3.4271e+02    -1.6658     -0.524     -0.761     7.2413   999.8928 0.0000e+00
     -0.503      0.166     8.0126     94.490     42.769  29.754264    -1.0542      6.939   220.6249 3.0973e+02    -0.9029     -0.507     -0.735     7.2589   999.8936 0.0000e+00
     -0.447      0.223     7.9254     94.400     42.402  29.892419    -0.8038      7.027   218.4975 2.8104e+02     0.4802     -0.444     -0.644     7.6629   999.8779 0.0000e+00
     -0.371      0.276     7.7499     94.352     42.022  29.926765    -0.6598      7.066   218.6691 2.8495e+02     1.2267     -0.367     -0.533     8.5057   999.8329 0.0000e+00
     -0.286      0.317     7.6036     94.365     41.602  29.852589    -0.5961      7.082   218.4837 3.6219e+02     1.4382     -0.284     -0.412     9.2572   999.7797 0.0000e+00
     -0.192      0.337     7.4943     94.446     41.157  29.693779    -0.0422      7.085   218.1493 4.0382e+02     3.0370     -0.188     -0.272     9.8196   999.7333 0.0000e+00
     -0.095      0.337     7.4037     94.616     40.775  29.529661     0.9738      7.080   218.7561 3.2942e+02     5.9084     -0.093     -0.135    10.2877   999.6927 0.0000e+00
     -0.000      0.319     7.3394     94.921     40.568  29.454688     1.5268      7.072   219.2812 2.8112e+02     7.4474      0.005      0.006    10.6380   999.6599 0.0000e+00
      0.084      0.285     7.2949     95.376     40.477  29.421898     1.5729      7.064   219.7658 3.1297e+02     7.5538      0.087      0.127    10.9044   999.6342 0.0000e+00
      0.154      0.238     7.2693     95.962     40.455  29.387058     1.5743      7.056   220.2274 3.4083e+02     7.4569      0.154      0.224    11.0922   999.6153 0.0000e+00
      0.213      0.185     7.2585     96.624     40.559  29.414123     1.5786      7.050   220.6463 3.6105e+02     7.2922      0.215      0.311    11.2218   999.6021 0.0000e+00
      0.256      0.132     7.2666     97.314     40.710  29.495271     1.5812      7.045   220.9594 3.9436e+02     7.2007      0.260      0.376    11.3148   999.5925 0.0000e+00
      0.276      0.084     7.2919     97.984     40.855  29.606748     1.5801      7.041   221.2604 4.1474e+02     7.1691      0.277      0.402    11.3694   999.5869 0.0000e+00
      0.280      0.043     7.3453     98.562     41.014  29.746750     1.5823      7.039   222.9949 3.8364e+02     7.1405      0.274      0.398    11.3355   999.5905 0.0000e+00
      0.280      0.012     7.4122     99.091     41.120  29.855537     1.5725      7.036   224.8943 4.1822e+02     7.1820      0.276      0.399    11.2433   999.6002 0.0000e+00
      0.279     -0.007     7.4729     99.865     41.148  29.906862     1.5481      7.033   224.0932 5.3464e+02     7.3114      0.278      0.401    11.2050   999.6042 0.0000e+00
      0.271     -0.017     7.5233    100.994     41.132  29.923164     1.5306      7.031   222.8591 5.7009e+02     7.3929      0.266      0.386    11.2250   999.6021 0.0000e+00
      0.262     -0.021     7.5627    101.995     41.100  29.925779     1.5259      7.029   223.5671 5.4199e+02     7.3817      0.253      0.369    11.2594   999.5985 0.0000e+00
      0.257     -0.021     7.5866    102.455     41.086  29.938506     1.5427      7.027   226.1136 4.8506e+02     7.4378      0.252      0.366    11.3002   999.5943 0.0000e+00
      0.252     -0.018     7.6266    102.277     41.076  29.950158     1.5779      7.022   229.0421 4.4133e+02     7.5798      0.248      0.359    11.3393   999.5901 0.0000e+00
      0.246     -0.013     7.7320    101.359     41.040  29.939773     1.5965      7.016   230.4109 4.3673e+02     7.6231      0.239      0.347    11.3731   999.5865 0.0000e+00
      0.243     -0.008     7.8133     99.635     41.019  29.939863     1.5939      7.010   230.6183 3.9213e+02     7.5678      0.237      0.344    11.4042   999.5832 0.0000e+00
      0.242     -0.004     7.8413     97.197     41.012  29.951268     1.6334      7.005   230.3447 3.8613e+02     7.4355      0.237      0.344    11.4326   999.5802 0.0000e+00
      0.243     -0.002     7.8293     94.337     40.993  29.950783     1.7189      7.003   230.0283 4.4063e+02     7.2370      0.238      0.346    11.4548   999.5778 0.0000e+00
      0.245     -0.000     7.7569     91.413     40.959  29.934007     1.7684      7.002   230.3199 4.5759e+02     7.1340      0.241      0.350    11.4729   999.5759 0.0000e+00
      0.246     -0.000     7.6217     88.758     40.874  29.875349     1.7733      7.001   230.8599 4.4484e+02     7.1405      0.242      0.351    11.4921   999.5738 0.0000e+00
      0.245     -0.001     7.4212     86.512     40.786  29.812641     1.7603      7.000   231.1357 4.2204e+02     7.2170      0.241      0.349    11.5137   999.5715 0.0000e+00
      0.242     -0.001     7.1923     84.650     40.778  29.810353     1.7331      6.999   231.0737 4.1329e+02     7.3383      0.238      0.345    11.5324   999.5694 0.0000e+00
      0.241     -0.001     6.9561     83.160     40.823  29.847690     1.7212      6.998   230.1970 4.5823e+02     7.3941      0.236      0.342    11.5418   999.5684 0.0000e+00
      0.242     -0.000     6.7506     82.061     40.867  29.883358     1.7293      6.998   229.4840 4.9265e+02     7.3679      0.237      0.343    11.5436   999.5682 0.0000e+00
      0.243      0.001     6.5820     81.312     40.917  29.924349     1.7441      6.998   230.2819 4.6623e+02     7.3485      0.238      0.346    11.5437   999.5681 0.0000e+00
      0.244      0.003     6.4398     80.794     40.966  29.962590     1.7696      6.998   231.1544 4.8330e+02     7.3559      0.240      0.348    11.5477   999.5677 0.0000e+00
      0.244      0.005     6.3237     80.419     40.970  29.965008     1.7866      6.998   231.2572 5.7172e+02     7.3590      0.241      0.349    11.5545   999.5670 0.0000e+00
      0.244      0.006     6.2399     80.161     40.956  29.953576     1.7854      6.998   231.1810 5.9321e+02     7.3540      0.239      0.347    11.5593   999.5665 0.0000e+00
      0.246      0.006     6.1872     80.019     40.955  29.951280     1.7719      6.998   231.0935 4.9908e+02     7.3612      0.240      0.348    11.5646   999.5659 0.0000e+00
      0.250      0.006     6.1486     79.960     40.935  29.937248     1.7368      6.998   231.0583 4.2488e+02     7.3797      0.245      0.356    11.5687   999.5655 0.0000e+00
      0.253      0.006     6.1214     79.957     40.897  29.910819     1.6899      6.998   231.1000 4.5782e+02     7.3813      0.249      0.361    11.5680   999.5656 0.0000e+00
      0.253      0.005     6.1009     80.005     40.861  29.885541     1.6642      6.998   231.2539 4.8353e+02     7.3809      0.248      0.360    11.5649   999.5660 0.0000e+00
      0.254      0.002     6.0923     80.076     40.859  29.885435     1.6599      6.998   231.3703 4.2244e+02     7.3746      0.249      0.361    11.5627   999.5662 0.0000e+00
      0.254     -0.002     6.0883     80.136     40.891  29.909538     1.6733      6.997   231.3893 4.1577e+02     7.3707      0.250      0.363    11.5637   999.5661 0.0000e+00
      0.254     -0.004     6.0873     80.201     40.909  29.923163     1.6962      6.995   231.3970 4.4573e+02     7.3997      0.250      0.363    11.5659   999.5658 0.0000e+00
      0.252     -0.005     6.0919     80.315     40.911  29.923268     1.7029      6.994   231.3776 4.1426e+02     7.3964      0.248      0.360    11.5667   999.5657 0.0000e+00
      0.249     -0.006     6.0984     80.478     40.897  29.910796     1.7022      6.992   230.8968 4.1132e+02     7.3648      0.245      0.354    11.5677   999.5656 0.0000e+00
      0.247     -0.006     6.1025     80.654     40.884  29.899268     1.6966      6.990   230.2300 4.2787e+02     7.4433      0.242      0.351    11.5697   999.5654 0.0000e+00
      0.246     -0.005     6.1049     80.793     40.902  29.910796     1.6867      6.988   230.4566 4.0642e+02     7.5921      0.241      0.350    11.5709   999.5652 0.0000e+00
      0.245     -0.004     6.1144     80.862     40.922  29.923269     1.6865      6.987   231.0549 4.1080e+02     7.6566      0.241      0.349    11.5692   999.5654 0.0000e+00
      0.245     -0.001     6.1283     80.880     40.923  29.923165     1.6940      6.987   230.7524 4.3087e+02     7.6322      0.241      0.349    11.5661   999.5658 0.0000e+00
      0.244      0.003     6.1433     80.882     40.908  29.909539     1.7173      6.987   230.1554 3.7243e+02     7.5928      0.240      0.347    11.5638   999.5660 0.0000e+00
      0.244      0.006     6.1558     80.851     40.878  29.885416     1.7512      6.987   230.6335 3.1310e+02     7.5737      0.238      0.345    11.5610   999.5663 0.0000e+00
      0.245      0.010     6.1606     80.757     40.882  29.885314     1.7665      6.986   231.4575 3.2695e+02     7.5647      0.240      0.348    11.5584   999.5666 0.0000e+00
      0.249      0.012     6.1604     80.629     40.917  29.908302     1.7632      6.985   231.0835 3.3896e+02     7.5823      0.245      0.355    11.5577   999.5667 0.0000e+00
      0.255      0.012     6.1615     80.494     40.921  29.909541     1.7202      6.985   229.9835 3.1846e+02     7.5903      0.249      0.363    11.5558   999.5669 0.0000e+00
      0.260      0.011     6.1616     80.333     40.909  29.900292     1.6364      6.985   229.4285 3.0094e+02     7.5627      0.255      0.369    11.5513   999.5674 0.0000e+00
      0.263      0.009     6.1533     80.117     40.942  29.923385     1.5901      6.984   229.3634 3.0289e+02     7.5763      0.259      0.375    11.5472   999.5679 0.0000e+00
      0.265      0.006     6.1430     79.879     40.961  29.934932     1.5859      6.983   229.9712 3.1794e+02     7.6237      0.260      0.378    11.5444   999.5682 0.0000e+00
      0.265      0.003     6.1336     79.641     40.934  29.913003     1.5857      6.980   231.2704 3.2724e+02     7.6102      0.260      0.377    11.5426   999.5684 0.0000e+00
      0.264      0.001     6.1232     79.381     40.936  29.912058     1.6742      6.977   231.5636 3.1796e+02     7.5447      0.259      0.376    11.5422   999.5684 0.0000e+00
      0.264      0.000     6.1051     79.123     40.956  29.923499     1.8501      6.974   230.6775 3.0626e+02     7.5532      0.259      0.375    11.5416   999.5685 0.0000e+00
      0.264      0.000     6.0858     78.880     40.960  29.924424     1.9427      6.971   230.1062 3.0741e+02     7.6154      0.259      0.376    11.5387   999.5689 0.0000e+00
      0.264      0.001     6.0712     78.662     40.959  29.923246     1.9541      6.967   230.6790 3.4629e+02     7.6408      0.259      0.376    11.5348   999.5692 0.0000e+00
      0.265      0.003     6.0490     78.471     40.940  29.909254     1.9791      6.963   231.5807 3.8484e+02     7.6966      0.260      0.377    11.5314   999.5696 0.0000e+00
      0.265      0.005     6.0306     78.280     40.904  29.882157     2.0023      6.959   231.4584 3.5046e+02     7.7979      0.260      0.377    11.5282   999.5701 0.0000e+00
      0.266      0.005     6.0122     78.114     40.862  29.849435     2.0083      6.954   231.2649 3.1769e+02     7.8500      0.261      0.378    11.5253   999.5703 0.0000e+00
      0.269      0.004     5.9944     78.010     40.838  29.830881     2.0083      6.950   231.4789 3.4036e+02     7.8349      0.264      0.382    11.5250   999.5703 0.0000e+00
      0.272      0.003     5.9825     77.950     40.860  29.848176     1.9940      6.947   231.2928 3.5069e+02     7.8447      0.267      0.387    11.5267   999.5702 0.0000e+00
      0.272      0.002     5.9661     77.894     40.885  29.868186     1.9660      6.945   231.5950 3.3776e+02     7.9360      0.268      0.388    11.5252   999.5703 0.0000e+00
      0.271      0.001     5.9527     77.827     40.904  29.882471     1.9470      6.942   232.2079 3.2530e+02     8.0212      0.266      0.386    11.5214   999.5707 0.0000e+00
      0.270     -0.001     5.9455     77.753     40.924  29.893982     1.9467      6.940   231.9922 3.1704e+02     8.0558      0.265      0.384    11.5203   999.5708 0.0000e+00
      0.270     -0.002     5.9425     77.655     40.912  29.880447     2.0062      6.939   231.5677 3.1579e+02     8.1247      0.264      0.383    11.5221   999.5706 0.0000e+00
      0.270     -0.001     5.9379     77.514     40.868  29.845737     2.1193      6.935   231.4640 3.3937e+02     8.2322      0.265      0.385    11.5248   999.5703 0.0000e+00
      0.269      0.001     5.9321     77.339     40.797  29.791565     2.1872      6.933   231.5119 3.8485e+02     8.2730      0.264      0.383    11.5268   999.5701 0.0000e+00
      0.267      0.003     5.9276     77.146     40.726  29.733082     2.1942      6.933   231.4591 3.9465e+02     8.2578      0.260      0.379    11.5223   999.5706 0.0000e+00
      0.267      0.004     5.9221     76.912     40.710  29.709695     2.1256      6.933   231.2558 3.5388e+02     8.2771      0.261      0.378    11.5140   999.5715 0.0000e+00
      0.271      0.005     5.9118     76.654     40.712  29.699141     1.9909      6.933   231.3770 3.1391e+02     8.3101      0.267      0.387    11.5116   999.5718 0.0000e+00
      0.275      0.005     5.8965     76.412     40.682  29.668910     1.9098      6.934   231.8061 3.2239e+02     8.2970      0.271      0.393    11.5118   999.5717 0.0000e+00
      0.276      0.004     5.8850     76.160     40.680  29.661436     1.8908      6.934   231.9698 3.6831e+02     8.2821      0.271      0.393    11.5034   999.5726 0.0000e+00
      0.277      0.003     5.8689     75.890     40.699  29.672221     1.8821      6.934   231.8931 3.8692e+02     8.2938      0.272      0.394    11.4864   999.5744 0.0000e+00
      0.277      0.001     5.8486     75.621     40.700  29.672408     1.8660      6.934   231.9118 3.5230e+02     8.2095      0.272      0.394    11.4707   999.5762 0.0000e+00
      0.276     -0.001     5.8342     75.353     40.687  29.663688     1.8429      6.934   232.6255 3.2533e+02     8.0490      0.271      0.393    11.4599   999.5773 0.0000e+00
      0.276     -0.001     5.8157     75.053     40.642  29.630243     1.8358      6.934   233.3809 3.2586e+02     7.9600      0.270      0.392    11.4529   999.5780 0.0000e+00
      0.275     -0.001     5.7945     74.709     40.582  29.585302     1.8411      6.934   232.9578 3.1431e+02     7.9517      0.270      0.391    11.4498   999.5784 0.0000e+00
      0.275     -0.001     5.7739     74.356     40.557  29.564476     1.8731      6.934   232.4152 3.0719e+02     7.9492      0.270      0.392    11.4491   999.5784 0.0000e+00
      0.275     -0.001     5.7545     74.026     40.568  29.568786     1.9273      6.934   232.4120 3.4258e+02     7.8963      0.271      0.393    11.4500   999.5783 0.0000e+00
      0.275     -0.001     5.7326     73.722     40.493  29.510507     1.9507      6.935   232.4031 3.8189e+02     7.8365      0.271      0.393    11.4511   999.5782 0.0000e+00
      0.273     -0.007     5.7043     73.407     40.218  29.303992     1.9482      6.936   232.3075 3.5289e+02     7.8170      0.268      0.389    11.4504   999.5782 0.0000e+00
      0.272     -0.029     5.6777     73.057     39.991  29.102296     1.9664      6.936   232.2027 3.0182e+02     7.8237      0.265      0.385    11.4449   999.5788 0.0000e+00
      0.275     -0.071     5.6523     72.682     40.132  29.102237     1.9969      6.935   232.2539 2.9542e+02     7.8197      0.268      0.389    11.4393   999.5794 0.0000e+00
      0.275     -0.125     5.6319     72.323     40.515  29.239721     2.0054      6.934   233.3565 3.5992e+02     7.8007      0.276      0.400    11.4342   999.5800 0.0000e+00
      0.252     -0.180     5.6081     72.078     40.831  29.368508     1.9908      6.933   235.4684 4.7747e+02     7.7914      0.266      0.386    11.4355   999.5797 0.0000e+00
      0.184     -0.226     5.5825     72.050     40.986  29.453704     1.8983      6.931   236.7094 6.9467e+02     7.7726      0.196      0.283    11.4232   999.5806 0.0000e+00
      0.084     -0.261     5.5718     72.294     40.936  29.444914     1.7359      6.930   236.6593 7.9386e+02     7.8356      0.077      0.112    11.2801   999.5952 0.0000e+00
     -0.012     -0.281     5.5696     72.805     40.702  29.325713     1.6574      6.931   236.1532 6.7921e+02     9.6013     -0.023     -0.033    11.0560   999.6180 0.0000e+00
     -0.083     -0.281     5.5648     73.525     40.493  29.218103     1.7303      6.935   235.4085 7.3032e+02    30.1049     -0.086     -0.126    10.9241   999.6312 0.0000e+00
     -0.139     -0.262     5.5633     74.315     40.418  29.159097     2.5303      6.937   235.3986 7.4766e+02   255.8086     -0.135     -0.196    10.9049   999.6328 0.0000e+00
     -0.198     -0.236     5.5764     75.026     40.563  29.183339     3.9869      6.940   237.7541 5.8563e+02   669.5548     -0.191     -0.277    10.9551   999.6276 0.0000e+00
     -0.261     -0.213     5.6076     75.587     40.847  29.257313     4.7766      6.942   242.1207 4.9787e+02   895.0161     -0.260     -0.376    11.0232   999.6203 0.0000e+00
     -0.318     -0.196     5.6582     75.983     40.983  29.228488     4.8299      6.941   247.1543 4.6044e+02   913.6194     -0.315     -0.456    11.0946   999.6126 0.0000e+00
     -0.366     -0.176     5.7222     76.271     41.031  29.151951     4.7363      6.941   251.8961 4.4411e+02   895.2398     -0.360     -0.522    11.1105   999.6107 0.0000e+00
     -0.407     -0.148     5.7930     76.630     41.194  29.156671     3.7226      6.942   254.8837 4.5671e+02   672.7244     -0.403     -0.584    10.9962   999.6222 0.0000e+00
     -0.442     -0.111     5.8632     77.268     41.432  29.221994     1.8577      6.943   251.4434 4.4083e+02   264.4232     -0.432     -0.626    10.8027   999.6415 0.0000e+00
     -0.475     -0.068     5.9149     78.288     41.567  29.243677     0.8372      6.941   242.3063 4.2433e+02    41.6638     -0.470     -0.682    10.6460   999.6566 0.0000e+00
     -0.494     -0.013     5.9478     79.615     41.599  29.228407     0.7644      6.934   237.2439 4.5727e+02    21.2004     -0.496     -0.719    10.5271   999.6679 0.0000e+00
     -0.491      0.052     5.9893     81.073     41.615  29.227678     1.0392      6.924   236.4384 5.0918e+02    17.0359     -0.484     -0.701    10.3851   999.6813 0.0000e+00
     -0.474      0.127     6.0553     82.531     41.623  29.234856     1.5766      6.914   235.2330 5.8979e+02    12.5471     -0.470     -0.682    10.2479   999.6941 0.0000e+00
     -0.438      0.207     6.1507     83.896     41.703  29.315194     1.8772      6.908   234.7150 7.2985e+02    10.1524     -0.443     -0.644    10.1570   999.7025 0.0000e+00
     -0.373      0.281     6.2677     85.050     41.760  29.437627     1.8907      6.906   234.9942 9.3170e+02     9.8750     -0.373     -0.542    10.1177   999.7063 0.0000e+00
     -0.282      0.337     6.3866     85.889     41.649  29.509664     1.8355      6.907   235.2541 1.1400e+03     9.2920     -0.282     -0.409    10.1100   999.7075 0.0000e+00
     -0.173      0.369     6.5027     86.435     41.644  29.678729     1.7551      6.909   235.2757 1.2347e+03     8.3470     -0.177     -0.256    10.1132   999.7077 0.0000e+00
     -0.053      0.370     6.6132     86.822     41.821  29.959085     1.7161      6.910   235.2550 1.0083e+03     7.8873     -0.050     -0.072    10.1180   999.7078 0.0000e+00
      0.062      0.340     6.6944     87.188     41.837  30.107625     1.7206      6.911   235.3490 5.7983e+02     7.8305      0.069      0.101    10.2045   999.7007 0.0000e+00
      0.153      0.289     6.7255     87.638     41.717  30.142335     1.7476      6.914   235.3789 3.7342e+02     7.7262      0.160      0.233    10.4210   999.6812 0.0000e+00
      0.216      0.225     6.7278     88.166     41.647  30.188521     1.7921      6.916   235.3584 3.7471e+02     7.6087      0.222      0.322    10.6445   999.6602 0.0000e+00
      0.255      0.160     6.7272     88.639     41.589  30.221976     1.8248      6.918   235.4452 3.9221e+02     7.5576      0.254      0.369    10.8196   999.6434 0.0000e+00
      0.277      0.103     6.7261     88.936     41.521  30.229636     1.8400      6.920   235.5679 3.9147e+02     7.5996      0.275      0.398    10.9865   999.6269 0.0000e+00
      0.290      0.061     6.7367     88.991     41.447  30.217746     1.8810      6.922   235.6374 3.5392e+02     7.7881      0.288      0.417    11.1353   999.6117 0.0000e+00
      0.296      0.032     6.7654     88.790     41.389  30.205168     1.9642      6.925   235.6834 3.2611e+02     8.0684      0.291      0.422    11.2498   999.5999 0.0000e+00
      0.297      0.011     6.7903     88.378     41.359  30.204495     2.0224      6.928   235.7801 3.1796e+02     8.2358      0.292      0.423    11.3381   999.5906 0.0000e+00
      0.297     -0.004     6.8046     87.830     41.343  30.209639     2.0294      6.931   235.9459 3.0270e+02     8.2716      0.291      0.423    11.4063   999.5834 0.0000e+00
      0.297     -0.015     6.8011     87.155     41.318  30.203925     2.0226      6.933   236.0532 3.4876e+02     8.2390      0.292      0.425    11.4560   999.5780 0.0000e+00
      0.294     -0.021     6.7793     86.362     41.298  30.198874     2.0008      6.933   236.1307 4.1344e+02     8.0384      0.293      0.426    11.4907   999.5743 0.0000e+00
      0.283     -0.023     6.7413     85.588     41.307  30.212027     1.9660      6.932   236.2808 3.7688e+02     7.7469      0.279      0.404    11.5144   999.5717 0.0000e+00
      0.269     -0.018     6.6961     84.948     41.246  30.172602     1.9486      6.933   236.4921 3.1735e+02     7.6305      0.259      0.376    11.5333   999.5695 0.0000e+00
      0.261     -0.009     6.6448     84.391     41.146  30.102927     1.9548      6.933   236.7931 3.0303e+02     7.6150      0.256      0.372    11.5506   999.5676 0.0000e+00
      0.259      0.000     6.5764     83.816     41.182  30.131050     1.9896      6.932   237.5107 3.0367e+02     7.5589      0.253      0.367    11.5607   999.5666 0.0000e+00
      0.263      0.008     6.5128     83.221     41.268  30.195363     2.0399      6.932   238.1132 3.2115e+02     7.5425      0.252      0.365    11.5673   999.5659 0.0000e+00
      0.277      0.013     6.4648     82.616     41.250  30.182530     2.0682      6.933   237.7109 3.4150e+02     7.5800      0.272      0.394    11.5750   999.5651 0.0000e+00
      0.288      0.014     6.4272     82.023     41.228  30.166245     2.0727      6.935   237.2065 3.4687e+02     7.5861      0.289      0.420    11.5779   999.5648 0.0000e+00
      0.286      0.013     6.3807     81.476     41.258  30.188825     2.0507      6.937   237.2631 3.7756e+02     7.5513      0.282      0.410    11.5796   999.5646 0.0000e+00
      0.281      0.008     6.3355     80.911     41.273  30.201733     2.0188      6.938   237.3629 4.0411e+02     7.5530      0.272      0.394    11.5824   999.5642 0.0000e+00
      0.281      0.002     6.2898     80.313     41.262  30.195417     2.0073      6.941   237.3813 3.7001e+02     7.5736      0.274      0.398    11.5829   999.5641 0.0000e+00
      0.286     -0.002     6.2409     79.745     41.235  30.175906     2.0078      6.943   237.3989 3.4254e+02     7.5711      0.282      0.409    11.5806   999.5645 0.0000e+00
      0.288     -0.002     6.2042     79.262     41.211  30.156189     1.9985      6.945   237.4038 3.6698e+02     7.5222      0.285      0.413    11.5813   999.5644 0.0000e+00
      0.285     -0.003     6.1603     78.878     41.203  30.147379     1.9728      6.947   237.3547 4.3004e+02     7.4084      0.280      0.407    11.5855   999.5640 0.0000e+00
      0.281     -0.004     6.1120     78.563     41.187  30.132847     1.9572      6.950   237.3214 4.4834e+02     7.3425      0.275      0.398    11.5880   999.5637 0.0000e+00
      0.280     -0.004     6.0674     78.274     41.154  30.107383     1.9571      6.952   237.5170 3.8018e+02     7.3482      0.274      0.399    11.5887   999.5636 0.0000e+00
      0.279     -0.001     6.0303     78.019     41.136  30.093313     1.9366      6.953   237.8266 3.6778e+02     7.3459      0.275      0.398    11.5865   999.5639 0.0000e+00
      0.277      0.005     6.0028     77.784     41.133  30.089640     1.9000      6.954   237.9674 4.6018e+02     7.3474      0.271      0.392    11.5807   999.5645 0.0000e+00
      0.278      0.011     5.9814     77.545     41.098  30.062972     1.8880      6.956   238.0150 5.2990e+02     7.3340      0.271      0.393    11.5767   999.5649 0.0000e+00
      0.283      0.017     5.9582     77.324     41.047  30.024681     1.8952      6.957   238.1441 5.3030e+02     7.3478      0.277      0.402    11.5763   999.5649 0.0000e+00
      0.289      0.024     5.9392     77.090     41.025  30.007393     1.9005      6.957   238.3241 5.0158e+02     7.4155      0.284      0.412    11.5751   999.5651 0.0000e+00
      0.296      0.031     5.9239     76.803     40.991  29.980856     1.9169      6.957   238.4706 4.4693e+02     7.4647      0.290      0.421    11.5724   999.5654 0.0000e+00
      0.303      0.036     5.9030     76.492     40.962  29.957639     1.9466      6.956   238.6243 3.8537e+02     7.5170      0.296      0.430    11.5715   999.5655 0.0000e+00
      0.313      0.037     5.8880     76.180     41.001  29.980483     1.9646      6.956   238.8062 3.6455e+02     7.5559      0.304      0.441    11.5710   999.5655 0.0000e+00
      0.328      0.036     5.8727     75.842     41.045  30.003244     1.9694      6.957   238.9492 3.8195e+02     7.5742      0.321      0.466    11.5691   999.5659 0.0000e+00
      0.341      0.034     5.8491     75.478     41.025  29.979009     2.0220      6.958   239.0622 4.5738e+02     7.6069      0.338      0.491    11.5674   999.5661 0.0000e+00
      0.348      0.031     5.8244     75.115     40.982  29.941268     2.1241      6.961   239.2263 5.1374e+02     7.5900      0.343      0.497    11.5663   999.5662 0.0000e+00
      0.350      0.026     5.8035     74.762     40.970  29.927642     2.1816      6.963   239.3844 4.2272e+02     7.5344      0.342      0.496    11.5592   999.5671 0.0000e+00
      0.355      0.021     5.7792     74.419     40.991  29.941156     2.1873      6.964   239.4249 3.3897e+02     7.5246      0.347      0.504    11.5453   999.5686 0.0000e+00
      0.361      0.018     5.7518     74.066     41.043  29.977751     2.1768      6.964   239.5445 3.6542e+02     7.5047      0.355      0.515    11.5340   999.5698 0.0000e+00
      0.367      0.018     5.7255     73.695     41.061  29.989389     2.1588      6.964   239.8835 4.3330e+02     7.4582      0.361      0.523    11.5255   999.5708 0.0000e+00
      0.371      0.021     5.6985     73.313     41.015  29.954967     2.1509      6.965   240.2548 4.5985e+02     7.4204      0.365      0.529    11.5202   999.5713 0.0000e+00
      0.372      0.024     5.6741     72.939     40.997  29.942278     2.1504      6.966   240.5923 4.6605e+02     7.3754      0.365      0.529    11.5185   999.5715 0.0000e+00
      0.376      0.027     5.6474     72.595     41.024  29.962873     2.1884      6.966   240.7800 5.2351e+02     7.4382      0.367      0.532    11.5170   999.5717 0.0000e+00
      0.385      0.029     5.6187     72.275     41.004  29.950163     2.2634      6.966   240.8040 4.9613e+02     7.5582      0.377      0.546    11.5160   999.5719 0.0000e+00
      0.397      0.030     5.5898     71.969     40.955  29.915515     2.3024      6.967   240.8824 3.7089e+02     7.5806      0.391      0.566    11.5151   999.5720 0.0000e+00
      0.409      0.029     5.5597     71.669     40.967  29.924668     2.3124      6.969   241.0399 2.9688e+02     7.5780      0.403      0.585    11.5140   999.5722 0.0000e+00
      0.417      0.026     5.5346     71.377     40.978  29.933924     2.3859      6.971   241.2451 3.1882e+02     7.5919      0.410      0.595    11.5158   999.5721 0.0000e+00
      0.421      0.023     5.5093     71.115     40.932  29.900519     2.5054      6.972   241.4711 3.4947e+02     7.6176      0.412      0.600    11.5186   999.5718 0.0000e+00
      0.423      0.021     5.4863     70.875     40.933  29.901497     2.5611      6.973   241.7934 3.1391e+02     7.6589      0.414      0.601    11.5199   999.5716 0.0000e+00
      0.426      0.023     5.4639     70.633     40.995  29.945757     2.5646      6.973   242.3025 2.7612e+02     7.6656      0.417      0.603    11.5205   999.5715 0.0000e+00
      0.431      0.032     5.4398     70.388     40.972  29.928023     2.5655      6.969   242.8083 2.7150e+02     7.6335      0.423      0.613    11.5213   999.5715 0.0000e+00
      0.437      0.044     5.4205     70.160     40.908  29.877432     2.5360      6.965   243.1764 2.7163e+02     7.6636      0.428      0.622    11.5223   999.5714 0.0000e+00
      0.447      0.054     5.4029     69.958     40.967  29.905151     2.4777      6.962   243.3987 2.5934e+02     7.7669      0.434      0.629    11.5220   999.5714 0.0000e+00
      0.466      0.059     5.3848     69.792     41.056  29.945886     2.4416      6.961   243.5167 2.4392e+02     7.8010      0.454      0.658    11.5205   999.5717 0.0000e+00
      0.492      0.059     5.3653     69.678     41.049  29.925751     2.4459      6.961   243.6560 2.3894e+02     7.7820      0.486      0.705    11.5197   999.5720 0.0000e+00
      0.513      0.055     5.3476     69.595     41.040  29.915505     2.5041      6.961   243.7935 2.3913e+02     7.7330      0.507      0.736    11.5221   999.5718 0.0000e+00
      0.523      0.046     5.3348     69.553     41.092  29.948900     2.5905      6.963   243.8885 2.4364e+02     7.6359      0.514      0.746    11.5022   999.5740 0.0000e+00
      0.530      0.033     5.3259     69.620     41.101  29.948799     2.6319      6.966   244.0302 2.4406e+02     7.6233      0.520      0.755    11.4591   999.5787 0.0000e+00
      0.536      0.021     5.3208     69.805     41.058  29.914275     2.6328      6.969   244.2160 2.4910e+02     7.6463      0.528      0.765    11.4421   999.5805 0.0000e+00
      0.540      0.012     5.3143     70.073     41.054  29.912195     2.6271      6.971   244.3274 2.5029e+02     7.6180      0.531      0.770    11.4469   999.5800 0.0000e+00
      0.540      0.006     5.3080     70.398     41.064  29.923654     2.6240      6.973   244.4311 2.2804e+02     7.6092      0.531      0.770    11.4395   999.5808 0.0000e+00
      0.539      0.002     5.3156     70.739     41.060  29.925924     2.6201      6.974   244.6086 2.1965e+02     7.6061      0.529      0.767    11.4276   999.5821 0.0000e+00
      0.539     -0.001     5.3311     71.053     41.072  29.939634     2.6151      6.974   244.7534 2.2682e+02     7.5800      0.528      0.766    11.4251   999.5824 0.0000e+00
      0.539     -0.001     5.3517     71.313     41.097  29.962527     2.5895      6.975   244.8917 2.2198e+02     7.5224      0.529      0.767    11.4265   999.5822 0.0000e+00
      0.538      0.002     5.3771     71.482     41.069  29.948908     2.5364      6.977   245.0772 2.2757e+02     7.4675      0.528      0.765    11.4316   999.5816 0.0000e+00
      0.537      0.008     5.4039     71.528     40.991  29.901885     2.5103      6.977   245.1888 2.3667e+02     7.4731      0.526      0.763    11.4390   999.5809 0.0000e+00
      0.537      0.014     5.4273     71.513     40.982  29.901614     2.5164      6.977   245.2940 2.2288e+02     7.4919      0.526      0.762    11.4442   999.5803 0.0000e+00
      0.541      0.019     5.4470     71.470     41.047  29.945638     2.5840      6.978   245.4891 2.0953e+02     7.6291      0.528      0.765    11.4503   999.5797 0.0000e+00
      0.551      0.023     5.4623     71.412     41.032  29.926542     2.7212      6.979   245.7411 2.1312e+02     7.9197      0.540      0.784    11.4567   999.5790 0.0000e+00
      0.561      0.026     5.4594     71.382     40.950  29.861074     2.8054      6.981   246.0183 2.1687e+02     8.0554      0.553      0.803    11.4726   999.5774 0.0000e+00
      0.568      0.027     5.4564     71.381     40.941  29.852062     2.8224      6.983   246.1731 2.1048e+02     8.0249      0.557      0.808    11.4860   999.5760 0.0000e+00
      0.572      0.026     5.4555     71.441     40.985  29.881032     2.8228      6.983   246.2358 2.0178e+02     8.0103      0.561      0.813    11.4762   999.5771 0.0000e+00
      0.577      0.025     5.4490     71.587     41.010  29.894069     2.7833      6.983   246.3458 1.9971e+02     8.0754      0.565      0.821    11.4632   999.5785 0.0000e+00
      0.584      0.025     5.4499     71.762     41.001  29.882783     2.7263      6.984   246.4708 2.0098e+02     8.2215      0.572      0.830    11.4557   999.5792 0.0000e+00
      0.591      0.027     5.4484     71.932     40.988  29.871468     2.7060      6.984   246.5426 2.0026e+02     8.3027      0.581      0.841    11.4539   999.5794 0.0000e+00
      0.598      0.029     5.4509     72.080     41.006  29.884167     2.7025      6.985   246.6116 2.0856e+02     8.3033      0.587      0.850    11.4532   999.5796 0.0000e+00
      0.605      0.031     5.4667     72.160     41.038  29.909420     2.6757      6.987   246.7034 2.1626e+02     8.2938      0.593      0.860    11.4441   999.5806 0.0000e+00
      0.613      0.031     5.4815     72.177     41.053  29.922985     2.6419      6.988   246.7916 2.0662e+02     8.2862      0.601      0.872    11.4374   999.5813 0.0000e+00
      0.623      0.030     5.4942     72.122     41.050  29.921278     2.6321      6.989   246.9039 1.9616e+02     8.3102      0.611      0.886    11.4350   999.5817 0.0000e+00
      0.632      0.029     5.5084     71.962     41.007  29.888783     2.6429      6.990   247.0290 1.9495e+02     8.3213      0.620      0.900    11.4352   999.5817 0.0000e+00
      0.639      0.027     5.5127     71.741     40.953  29.847354     2.6864      6.991   247.0995 2.1413e+02     8.3228      0.628      0.911    11.4387   999.5814 0.0000e+00
      0.643      0.025     5.5132     71.486     40.978  29.864544     2.7594      6.993   247.0681 2.2929e+02     8.3929      0.632      0.917    11.4425   999.5809 0.0000e+00
      0.648      0.024     5.5122     71.200     41.037  29.906263     2.8055      6.994   247.0788 2.0877e+02     8.4809      0.636      0.921    11.4432   999.5809 0.0000e+00
      0.655      0.024     5.4968     70.918     41.040  29.907591     2.8190      6.994   247.2295 1.9664e+02     8.5350      0.642      0.931    11.4411   999.5812 0.0000e+00
      0.661      0.025     5.4797     70.644     41.005  29.880597     2.8446      6.994   247.3411 2.0392e+02     8.4245      0.649      0.941    11.4388   999.5814 0.0000e+00
      0.667      0.028     5.4620     70.372     40.941  29.833700     2.8902      6.995   247.3101 2.0817e+02     8.1601      0.654      0.948    11.4364   999.5818 0.0000e+00
      0.674      0.031     5.4376     70.112     40.874  29.784731     2.9195      6.997   247.3709 2.3427e+02     8.0590      0.661      0.959    11.4341   999.5820 0.0000e+00
      0.682      0.033     5.4170     69.864     40.892  29.796156     2.9380      6.998   247.6458 2.5024e+02     8.0865      0.670      0.971    11.4343   999.5820 0.0000e+00
      0.690      0.035     5.3964     69.624     40.969  29.844926     2.9934      6.998   247.8803 2.2160e+02     8.1655      0.676      0.980    11.4333   999.5822 0.0000e+00
      0.700      0.036     5.3750     69.381     41.018  29.866770     3.0684      6.998   247.9694 1.9686e+02     8.3580      0.687      0.996    11.4321   999.5823 0.0000e+00
      0.712      0.035     5.3554     69.128     41.038  29.869892     3.1080      6.999   248.0351 1.9108e+02     8.4803      0.700      1.015    11.4329   999.5822 0.0000e+00
      0.722      0.032     5.3364     68.884     41.061  29.882659     3.1174      6.999   248.1586 1.8673e+02     8.4977      0.708      1.026    11.4325   999.5823 0.0000e+00
      0.732      0.028     5.3196     68.651     41.074  29.894221     3.1124      6.999   248.2577 1.8145e+02     8.5033      0.718      1.041    11.4242   999.5833 0.0000e+00
      0.739      0.024     5.3038     68.406     41.054  29.882789     3.0729      6.999   248.2010 1.7756e+02     8.3834      0.727      1.055    11.4038   999.5855 0.0000e+00
      0.741      0.022     5.2859     68.160     41.039  29.871349     3.0131      6.999   248.1620 1.7686e+02     8.1622      0.728      1.056    11.3862   999.5874 0.0000e+00
      0.742      0.020     5.2671     67.933     41.069  29.882801     2.9791      7.001   248.3025 1.7598e+02     8.0579      0.726      1.053    11.3818   999.5879 0.0000e+00
      0.747      0.020     5.2508     67.731     41.104  29.894340     2.9732      7.002   248.5228 1.7024e+02     8.0733      0.732      1.061    11.3863   999.5874 0.0000e+00
      0.755      0.021     5.2298     67.550     41.099  29.883938     2.9510      7.002   248.6738 1.6909e+02     8.1516      0.742      1.076    11.3945   999.5866 0.0000e+00
      0.763      0.022     5.2102     67.384     41.099  29.883938     2.9020      7.003   248.7519 1.7010e+02     8.2500      0.749      1.086    11.3968   999.5865 0.0000e+00
      0.768      0.024     5.1951     67.254     41.107  29.894330     2.8662      7.003   248.8645 1.7304e+02     8.2797      0.753      1.091    11.3797   999.5883 0.0000e+00
      0.773      0.024     5.1817     67.155     41.082  29.882686     2.8648      7.002   249.0032 1.7989e+02     8.2821      0.757      1.098    11.3569   999.5907 0.0000e+00
      0.779      0.024     5.1701     67.074     41.057  29.870075     2.8935      7.002   249.1387 1.7481e+02     8.2458      0.764      1.108    11.3508   999.5914 0.0000e+00
      0.785      0.024     5.1551     67.009     41.050  29.868759     2.9185      7.002   249.2112 1.6623e+02     8.1362      0.769      1.116    11.3523   999.5912 0.0000e+00
      0.791      0.025     5.1453     66.946     41.042  29.866782     2.9245      7.001   249.3645 1.5913e+02     8.0705      0.775      1.125    11.3574   999.5907 0.0000e+00
      0.797      0.025     5.1378     66.903     41.009  29.846177     2.9398      7.000   249.6157 1.5903e+02     8.0743      0.783      1.135    11.3669   999.5897 0.0000e+00
      0.804      0.024     5.1291     66.873     40.955  29.809991     2.9904      6.999   249.6667 1.6260e+02     8.0838      0.788      1.143    11.3741   999.5890 0.0000e+00
      0.811      0.021     5.1260     66.809     40.953  29.809976     3.0596      7.000   249.6370 1.6039e+02     8.0870      0.794      1.152    11.3785   999.5885 0.0000e+00
      0.817      0.018     5.1188     66.743     41.003  29.846005     3.0914      7.000   249.7735 1.6174e+02     8.0807      0.803      1.164    11.3828   999.5881 0.0000e+00
      0.822      0.015     5.1145     66.700     41.030  29.864884     3.0972      7.000   249.9399 1.6174e+02     8.0407      0.807      1.171    11.3880   999.5876 0.0000e+00
      0.824      0.013     5.1154     66.644     41.009  29.847876     3.0863      6.999   249.9284 1.5720e+02     7.9627      0.808      1.172    11.3919   999.5872 0.0000e+00
      0.825      0.012     5.1076     66.566     40.988  29.830727     3.0387      6.998   249.8919 1.5577e+02     7.8913      0.808      1.172    11.3933   999.5870 0.0000e+00
      0.827      0.012     5.1016     66.478     41.014  29.847901     2.9986      6.998   250.0152 1.5747e+02     7.8334      0.810      1.175    11.3929   999.5871 0.0000e+00
      0.830      0.013     5.1008     66.392     41.040  29.865155     2.9907      7.000   250.1291 1.5571e+02     7.7872      0.815      1.181    11.3914   999.5873 0.0000e+00
      0.834      0.016     5.0964     66.319     41.018  29.848982     2.9960      7.002   250.2361 1.5304e+02     7.7906      0.818      1.187    11.3892   999.5875 0.0000e+00
      0.839      0.019     5.0901     66.247     41.009  29.842712     2.9928      7.002   250.4483 1.5187e+02     7.8751      0.823      1.194    11.3869   999.5878 0.0000e+00
      0.844      0.022     5.0840     66.166     41.022  29.852802     2.9688      7.002   250.5442 1.5122e+02     7.9900      0.826      1.198    11.3849   999.5880 0.0000e+00
      0.849      0.025     5.0764     66.084     41.010  29.844072     2.9407      7.002   250.5349 1.5044e+02     8.0325      0.832      1.206    11.3830   999.5883 0.0000e+00
      0.855      0.028     5.0720     65.995     41.035  29.864069     2.9304      7.002   250.5944 1.4813e+02     8.0280      0.839      1.216    11.3820   999.5884 0.0000e+00
      0.863      0.031     5.0668     65.901     41.086  29.904219     2.9650      7.002   250.6612 1.4727e+02     8.0012      0.846      1.227    11.3830   999.5883 0.0000e+00
      0.872      0.035     5.0594     65.814     41.054  29.885354     3.0205      7.003   250.7403 1.4602e+02     7.9052      0.855      1.240    11.3829   999.5884 0.0000e+00
      0.881      0.037     5.0540     65.742     40.969  29.826339     3.0389      7.005   250.7764 1.4325e+02     7.8175      0.863      1.253    11.3835   999.5883 0.0000e+00
      0.892      0.039     5.0467     65.673     40.965  29.825208     3.0305      7.007   250.8400 1.4037e+02     7.7933      0.874      1.268    11.3854   999.5882 0.0000e+00
      0.902      0.040     5.0390     65.596     41.028  29.871682     2.9980      7.007   250.9928 1.3844e+02     7.7436      0.884      1.283    11.3880   999.5879 0.0000e+00
      0.912      0.040     5.0312     65.513     41.041  29.880627     2.9577      7.007   251.0745 1.3819e+02     7.6429      0.894      1.298    11.3945   999.5873 0.0000e+00
      0.922      0.040     5.0255     65.419     41.027  29.869903     2.9515      7.008   251.1401 1.3549e+02     7.5916      0.905      1.312    11.3996   999.5868 0.0000e+00
      0.932      0.039     5.0207     65.323     41.025  29.868928     2.9480      7.009   251.1832 1.3168e+02     7.6145      0.914      1.325    11.4010   999.5867 0.0000e+00
      0.943      0.036     5.0141     65.229     41.022  29.868839     2.9593      7.010   251.1660 1.2987e+02     7.6905      0.924      1.341    11.4014   999.5868 0.0000e+00
      0.954      0.033     5.0086     65.125     41.017  29.868831     3.0104      7.011   251.1901 1.2572e+02     7.7890      0.937      1.358    11.4008   999.5868 0.0000e+00
      0.962      0.031     5.0010     65.010     41.014  29.868830     3.0451      7.012   251.3022 1.2437e+02     7.8228      0.946      1.371    11.4000   999.5870 0.0000e+00
      0.968      0.029     4.9930     64.893     41.012  29.868830     3.0500      7.013   251.4034 1.2470e+02     7.8038      0.949      1.376    11.4003   999.5869 0.0000e+00
      0.973      0.027     4.9867     64.783     41.011  29.868840     3.0261      7.013   251.4670 1.2018e+02     7.6257      0.954      1.382    11.4029   999.5867 0.0000e+00
      0.980      0.026     4.9778     64.685     41.010  29.868952     2.9726      7.013   251.5548 1.1860e+02     7.3073      0.962      1.394    11.4076   999.5862 0.0000e+00
      0.987      0.026     4.9684     64.586     41.010  29.870185     2.9416      7.014   251.6049 1.1962e+02     7.1668      0.968      1.404    11.4110   999.5859 0.0000e+00
      0.993      0.025     4.9594     64.491     41.028  29.883745     2.9369      7.015   251.6419 1.1713e+02     7.1719      0.974      1.412    11.4118   999.5858 0.0000e+00
      1.001      0.023     4.9499     64.403     41.057  29.905997     2.9325      7.016   251.6586 1.1306e+02     7.1723      0.981      1.422    11.4132   999.5857 0.0000e+00
      1.009      0.020     4.9437     64.324     41.026  29.885421     2.9403      7.017   251.7216 1.1331e+02     7.2365      0.990      1.436    11.4147   999.5856 0.0000e+00
      1.014      0.020     4.9352     64.254     40.938  29.825322     2.9613      7.018   251.8861 1.1597e+02     7.3576      0.996      1.444    11.4154   999.5856 0.0000e+00
      1.015      0.021     4.9277     64.190     40.916  29.813878     2.9789      7.018   251.9269 1.1331e+02     7.4251      0.995      1.443    11.4161   999.5855 0.0000e+00
      1.016      0.024     4.9213     64.144     40.991  29.873969     2.9891      7.018   251.8708 1.1190e+02     7.4300      0.994      1.442    11.4171   999.5854 0.0000e+00
      1.023      0.028     4.9141     64.113     41.045  29.917354     3.0056      7.018   251.9822 1.1439e+02     7.5148      1.000      1.451    11.4194   999.5852 0.0000e+00
      1.033      0.035     4.9097     64.100     41.006  29.894270     3.0321      7.017   252.2416 1.1011e+02     7.6959      1.013      1.468    11.4240   999.5847 0.0000e+00
      1.044      0.044     4.9024     64.109     40.937  29.848680     3.0488      7.015   252.5124 1.0532e+02     7.8183      1.024      1.486    11.4315   999.5839 0.0000e+00
      1.054      0.052     4.8991     64.126     40.882  29.810312     3.0601      7.012   252.6745 1.0617e+02     7.8468      1.033      1.498    11.4371   999.5834 0.0000e+00
      1.067      0.057     4.8962     64.162     40.885  29.811086     3.0564      7.009   252.7390 1.0277e+02     7.8444      1.045      1.515    11.4408   999.5830 0.0000e+00
      1.083      0.057     4.8934     64.217     40.956  29.858026     3.0209      7.006   252.7760 9.8642e+01     7.8551      1.062      1.540    11.4488   999.5823 0.0000e+00
      1.103      0.053     4.8950     64.267     40.979  29.870238     2.9952      7.005   252.7776 9.8773e+01     7.8777      1.082      1.570    11.4552   999.5817 0.0000e+00
      1.122      0.045     4.8946     64.305     40.930  29.831825     2.9977      7.005   252.8443 9.6442e+01     7.8565      1.102      1.599    11.4578   999.5815 0.0000e+00
      1.133      0.034     4.8976     64.320     40.942  29.837750     2.9898      7.005   252.9801 9.3645e+01     7.7618      1.115      1.617    11.4562   999.5818 0.0000e+00
      1.138      0.023     4.9043     64.310     41.000  29.878429     2.9610      7.005   253.1294 9.3475e+01     7.6506      1.117      1.621    11.4486   999.5826 0.0000e+00
      1.138      0.013     4.9079     64.305     41.002  29.879489     2.9440      7.006   253.1870 9.2737e+01     7.5929      1.116      1.620    11.4429   999.5832 0.0000e+00
      1.138      0.006     4.9121     64.298     40.961  29.850564     2.9405      7.006   253.0743 9.2724e+01     7.5883      1.116      1.618    11.4393   999.5835 0.0000e+00
      1.138      0.002     4.9140     64.275     40.953  29.845961     2.9615      7.007   253.0571 9.3502e+01     7.6281      1.115      1.617    11.4361   999.5840 0.0000e+00
      1.139      0.002     4.9115     64.262     41.008  29.887297     3.0156      7.008   253.2370 9.2534e+01     7.6485      1.116      1.618    11.4339   999.5842 0.0000e+00
      1.140      0.005     4.9120     64.287     41.033  29.906177     3.0487      7.009   253.3571 9.1700e+01     7.6052      1.118      1.622    11.4332   999.5842 0.0000e+00
      1.140      0.012     4.9123     64.348     41.006  29.883885     3.0501      7.010   253.4765 9.2081e+01     7.5637      1.119      1.624    11.4350   999.5841 0.0000e+00
      1.140      0.020     4.9087     64.421     40.997  29.871570     3.0501      7.010   253.6488 9.2023e+01     7.5730      1.116      1.620    11.4371   999.5838 0.0000e+00
      1.143      0.027     4.9069     64.501     41.028  29.884182     3.0652      7.011   253.7197 9.0429e+01     7.6191      1.117      1.620    11.4390   999.5836 0.0000e+00
      1.153      0.033     4.9087     64.612     41.076  29.909452     3.0932      7.011   253.7312 8.7705e+01     7.6289      1.130      1.638    11.4391   999.5837 0.0000e+00
      1.168      0.038     4.9145     64.760     41.103  29.923277     3.1030      7.011   253.7010 8.6214e+01     7.5935      1.146      1.662    11.4382   999.5839 0.0000e+00
      1.182      0.040     4.9214     64.941     41.108  29.924429     3.0971      7.011   253.7849 8.5752e+01     7.5515      1.160      1.682    11.4310   999.5847 0.0000e+00
      1.192      0.038     4.9276     65.132     41.105  29.923389     3.0572      7.013   253.9710 8.3481e+01     7.4820      1.170      1.696    11.4157   999.5863 0.0000e+00
      1.200      0.033     4.9381     65.302     41.085  29.910699     2.9759      7.014   253.9720 8.1993e+01     7.3750      1.177      1.707    11.4035   999.5877 0.0000e+00
      1.207      0.028     4.9501     65.461     41.066  29.897904     2.9290      7.014   253.9699 8.2324e+01     7.3063      1.185      1.719    11.3949   999.5887 0.0000e+00
      1.213      0.024     4.9648     65.639     41.062  29.895597     2.9237      7.014   254.0319 8.1164e+01     7.3401      1.189      1.724    11.3919   999.5890 0.0000e+00
      1.218      0.022     4.9805     65.813     41.045  29.882811     2.9288      7.014   254.0334 8.0449e+01     7.3908      1.195      1.733    11.3959   999.5886 0.0000e+00
      1.222      0.022     4.9926     65.928     41.027  29.870216     2.9389      7.015   254.0732 8.1217e+01     7.4270      1.200      1.740    11.3988   999.5883 0.0000e+00
      1.227      0.022     5.0035     66.017     41.027  29.870216     2.9424      7.016   254.0836 8.0500e+01     7.4501      1.203      1.744    11.3994   999.5883 0.0000e+00
      1.233      0.023     5.0168     66.132     41.045  29.882803     2.9356      7.016   254.1586 7.8641e+01     7.4083      1.208      1.752    11.3999   999.5882 0.0000e+00
      1.240      0.023     5.0340     66.250     41.063  29.895495     2.9258      7.015   254.3771 7.7576e+01     7.3805      1.215      1.763    11.4005   999.5882 0.0000e+00
      1.247      0.023     5.0407     66.351     41.064  29.896770     2.9277      7.015   254.4886 7.6194e+01     7.4093      1.224      1.775    11.4005   999.5882 0.0000e+00
      1.253      0.023     5.0445     66.424     41.066  29.898217     2.9323      7.016   254.4753 7.5145e+01     7.4280      1.229      1.782    11.4001   999.5883 0.0000e+00
      1.258      0.023     5.0563     66.469     41.086  29.912997     2.9293      7.018   254.5608 7.5752e+01     7.4110      1.233      1.788    11.3995   999.5884 0.0000e+00
      1.263      0.023     5.0645     66.495     41.133  29.948564     2.9273      7.018   254.7474 7.5532e+01     7.3673      1.239      1.797    11.3993   999.5885 0.0000e+00
      1.268      0.025     5.0730     66.494     41.126  29.947535     2.9335      7.018   254.8382 7.4258e+01     7.3579      1.244      1.802    11.3995   999.5884 0.0000e+00
      1.274      0.029     5.0789     66.461     41.053  29.900555     2.9440      7.016   254.8849 7.3894e+01     7.3961      1.249      1.812    11.3996   999.5885 0.0000e+00
      1.280      0.033     5.0812     66.420     41.027  29.888177     2.9417      7.014   255.0542 7.3630e+01     7.4028      1.255      1.822    11.3992   999.5885 0.0000e+00
      1.290      0.036     5.0838     66.384     41.071  29.924782     2.9308      7.014   255.1634 7.2012e+01     7.3735      1.263      1.832    11.4014   999.5884 0.0000e+00
      1.302      0.037     5.0835     66.340     41.121  29.962427     2.9084      7.015   255.1733 6.9871e+01     7.4027      1.277      1.852    11.4066   999.5879 0.0000e+00
      1.316      0.037     5.0790     66.284     41.122  29.962615     2.8621      7.015   255.2595 6.9023e+01     7.4933      1.291      1.873    11.4141   999.5871 0.0000e+00
      1.326      0.036     5.0743     66.220     41.077  29.927060     2.8300      7.016   255.3459 6.9179e+01     7.5515      1.301      1.887    11.4234   999.5861 0.0000e+00
      1.332      0.034     5.0716     66.160     41.061  29.913246     2.8240      7.017   255.3572 6.8716e+01     7.5825      1.307      1.896    11.4293   999.5856 0.0000e+00
      1.338      0.032     5.0679     66.092     41.074  29.922496     2.8319      7.017   255.3107 6.7621e+01     7.5403      1.311      1.902    11.4307   999.5855 0.0000e+00
      1.346      0.031     5.0642     66.008     41.056  29.911998     2.8563      7.017   255.2998 6.6748e+01     7.4012      1.320      1.913    11.4290   999.5858 0.0000e+00
      1.355      0.031     5.0587     65.923     41.048  29.913227     2.8764      7.017   255.3970 6.6371e+01     7.3418      1.329      1.928    11.4254   999.5861 0.0000e+00
      1.363      0.033     5.0551     65.842     41.070  29.937357     2.8849      7.017   255.5393 6.5383e+01     7.3808      1.336      1.938    11.4228   999.5864 0.0000e+00
      1.371      0.036     5.0509     65.767     41.078  29.949942     2.8725      7.016   255.6435 6.3708e+01     7.3811      1.344      1.949    11.4206   999.5867 0.0000e+00
      1.379      0.039     5.0428     65.717     41.054  29.938499     2.8389      7.016   255.7113 6.3222e+01     7.3450      1.351      1.960    11.4240   999.5864 0.0000e+00
      1.389      0.042     5.0355     65.687     41.032  29.925912     2.8173      7.016   255.7558 6.3002e+01     7.3370      1.360      1.972    11.4338   999.5854 0.0000e+00
      1.401      0.044     5.0282     65.633     41.027  29.924666     2.8104      7.016   255.7519 6.1269e+01     7.3827      1.374      1.993    11.4437   999.5844 0.0000e+00
      1.414      0.045     5.0206     65.539     41.023  29.923427     2.7900      7.016   255.7505 5.9177e+01     7.4722      1.387      2.011    11.4534   999.5834 0.0000e+00
      1.427      0.044     5.0156     65.438     41.005  29.910945     2.7609      7.017   255.8246 5.8150e+01     7.5664      1.400      2.029    11.4608   999.5826 0.0000e+00
      1.439      0.042     5.0146     65.325     40.990  29.900647     2.7539      7.018   255.8736 5.7573e+01     7.6048      1.411      2.047    11.4647   999.5823 0.0000e+00
      1.449      0.037     5.0117     65.204     41.024  29.925831     2.7565      7.019   255.8262 5.6182e+01     7.5752      1.421      2.061    11.4669   999.5821 0.0000e+00
      1.458      0.033     5.0015     65.109     41.073  29.961625     2.7495      7.020   255.8539 5.5033e+01     7.4386      1.431      2.076    11.4688   999.5819 0.0000e+00
      1.465      0.030     4.9949     65.050     41.059  29.952698     2.7471      7.022   255.9505 5.5226e+01     7.2316      1.439      2.087    11.4702   999.5818 0.0000e+00
      1.470      0.028     4.9864     65.024     41.048  29.944813     2.7545      7.023   256.0479 5.5157e+01     7.1691      1.442      2.092    11.4707   999.5818 0.0000e+00
      1.475      0.027     4.9751     65.059     41.116  29.993184     2.7609      7.023   256.1714 5.4443e+01     7.2070      1.444      2.095    11.4706   999.5818 0.0000e+00
      1.482      0.027     4.9682     65.174     41.170  30.029923     2.7542      7.023   256.2388 5.3760e+01     7.1982      1.452      2.104    11.4714   999.5818 0.0000e+00
      1.492      0.032     4.9637     65.344     41.140  30.008290     2.7435      7.023   256.3463 5.3005e+01     7.1612      1.465      2.123    11.4722   999.5817 0.0000e+00
      1.499      0.040     4.9610     65.568     41.104  29.985435     2.7360      7.023   256.5249 5.2601e+01     7.1200      1.472      2.135    11.4737   999.5816 0.0000e+00
      1.505      0.047     4.9619     65.841     41.124  30.007414     2.7325      7.023   256.5923 5.1829e+01     7.1262      1.474      2.138    11.4721   999.5819 0.0000e+00
      1.516      0.053     4.9738     66.138     41.130  30.020219     2.7526      7.024   256.6450 5.0170e+01     7.1705      1.483      2.152    11.4669   999.5825 0.0000e+00
      1.536      0.058     4.9860     66.433     41.111  30.013365     2.8317      7.024   256.8182 4.8725e+01     7.3275      1.505      2.184    11.4661   999.5826 0.0000e+00
      1.557      0.061     5.0025     66.684     41.153  30.051456     2.9435      7.023   256.9655 4.7548e+01     7.6164      1.529      2.217    11.4704   999.5822 0.0000e+00
      1.574      0.062     5.0236     66.868     41.208  30.100053     2.9942      7.021   256.9626 4.6239e+01     7.7796      1.544      2.239    11.4819   999.5811 0.0000e+00
      1.589      0.060     5.0443     66.986     41.188  30.093323     2.9940      7.020   256.8697 4.5316e+01     7.7936      1.558      2.260    11.4934   999.5800 0.0000e+00
      1.603      0.055     5.0685     67.034     41.183  30.097003     2.9670      7.021   256.8746 4.4860e+01     7.7524      1.573      2.281    11.5003   999.5793 0.0000e+00
      1.615      0.050     5.0868     67.033     41.239  30.144557     2.9101      7.021   257.0214 4.3957e+01     7.6411      1.584      2.297    11.5088   999.5784 0.0000e+00
      1.628      0.045     5.0992     67.045     41.255  30.160668     2.8796      7.021   257.1819 4.2680e+01     7.5627      1.595      2.315    11.5195   999.5774 0.0000e+00
      1.640      0.040     5.1076     67.107     41.255  30.164903     2.8753      7.021   257.2674 4.2188e+01     7.5586      1.610      2.334    11.5293   999.5763 0.0000e+00
      1.650      0.035     5.1103     67.253     41.292  30.195756     2.8319      7.022   257.2805 4.2108e+01     7.6246      1.619      2.347    11.5378   999.5754 0.0000e+00
      1.659      0.032     5.1061     67.501     41.317  30.216438     2.7450      7.024   257.3405 4.1730e+01     7.7374      1.626      2.360    11.5465   999.5746 0.0000e+00
      1.664      0.032     5.1062     67.853     41.326  30.224612     2.6910      7.024   257.4756 4.1515e+01     7.8081      1.633      2.370    11.5522   999.5740 0.0000e+00
      1.668      0.034     5.1095     68.351     41.334  30.231129     2.6998      7.023   257.6244 4.1308e+01     7.8238      1.635      2.372    11.5555   999.5736 0.0000e+00
      1.675      0.037     5.1189     68.983     41.334  30.231783     2.8594      7.022   257.6764 4.0641e+01     7.8288      1.640      2.379    11.5607   999.5731 0.0000e+00
      1.686      0.042     5.1389     69.691     41.336  30.232514     3.1382      7.022   257.6734 3.9656e+01     7.8358      1.654      2.398    11.5649   999.5727 0.0000e+00
      1.701      0.047     5.1626     70.466     41.347  30.239966     3.2877      7.023   257.7608 3.8601e+01     7.8103      1.669      2.420    11.5654   999.5727 0.0000e+00
      1.715      0.051     5.2010     71.290     41.372  30.258426     3.3065      7.023   257.8733 3.7708e+01     7.7831      1.682      2.439    11.5665   999.5727 0.0000e+00
      1.728      0.054     5.2522     72.092     41.382  30.265349     3.2959      7.024   257.9139 3.7068e+01     7.8018      1.695      2.458    11.5679   999.5726 0.0000e+00
      1.742      0.056     5.3050     72.814     41.376  30.260224     3.2114      7.025   257.9080 3.6378e+01     7.8397      1.708      2.477    11.5662   999.5728 0.0000e+00
      1.754      0.058     5.3644     73.434     41.377  30.259913     3.0737      7.024   257.9740 3.5439e+01     7.8482      1.721      2.495    11.5652   999.5730 0.0000e+00
      1.768      0.061     5.4301     73.964     41.380  30.261587     3.0006      7.024   258.1101 3.4504e+01     7.8058      1.732      2.512    11.5654   999.5731 0.0000e+00
      1.786      0.065     5.4922     74.413     41.405  30.280464     3.0038      7.024   258.1776 3.3639e+01     7.7534      1.750      2.538    11.5651   999.5732 0.0000e+00
      1.805      0.067     5.5484     74.765     41.427  30.297785     3.0782      7.023   258.1872 3.2708e+01     7.6410      1.771      2.569    11.5647   999.5733 0.0000e+00
      1.821      0.068     5.5951     75.047     41.402  30.280651     3.2242      7.023   258.2259 3.1837e+01     7.4630      1.786      2.590    11.5625   999.5737 0.0000e+00
      1.839      0.068     5.6347     75.304     41.376  30.263660     3.3119      7.024   258.2159 3.1167e+01     7.3707      1.802      2.614    11.5617   999.5738 0.0000e+00
      1.859      0.066     5.6702     75.563     41.400  30.282710     3.3072      7.024   258.1515 3.0430e+01     7.3770      1.824      2.645    11.5641   999.5736 0.0000e+00
      1.876      0.063     5.6958     75.842     41.450  30.320627     3.2281      7.024   258.1361 2.9520e+01     7.4076      1.840      2.669    11.5645   999.5737 0.0000e+00
      1.891      0.060     5.7155     76.156     41.475  30.341378     3.0924      7.025   258.2016 2.8799e+01     7.4451      1.854      2.688    11.5646   999.5737 0.0000e+00
      1.906      0.057     5.7346     76.512     41.475  30.343251     3.0095      7.026   258.2554 2.8315e+01     7.4707      1.869      2.711    11.5681   999.5733 0.0000e+00
      1.920      0.053     5.7529     76.923     41.473  30.343266     2.9983      7.027   258.2698 2.7808e+01     7.4544      1.884      2.732    11.5712   999.5731 0.0000e+00
      1.932      0.050     5.7737     77.367     41.468  30.341567     3.0607      7.028   258.3760 2.7255e+01     7.4774      1.895      2.748    11.5727   999.5731 0.0000e+00
      1.944      0.046     5.7974     77.792     41.439  30.322708     3.1832      7.029   258.5066 2.6810e+01     7.5862      1.907      2.765    11.5750   999.5729 0.0000e+00
      1.956      0.041     5.8236     78.192     41.413  30.305610     3.2487      7.028   258.5587 2.6395e+01     7.6554      1.918      2.782    11.5774   999.5727 0.0000e+00
      1.967      0.035     5.8546     78.587     41.438  30.325203     3.2537      7.028   258.5757 2.5894e+01     7.6584      1.929      2.797    11.5794   999.5725 0.0000e+00
      1.977      0.029     5.8909     79.015     41.496  30.369240     3.3645      7.029   258.6264 2.5543e+01     7.4909      1.940      2.814    11.5823   999.5722 0.0000e+00
      1.984      0.023     5.9219     79.504     41.528  30.393874     3.5912      7.030   258.6555 2.5458e+01     7.1379      1.947      2.823    11.5848   999.5720 0.0000e+00
      1.987      0.021     5.9521     80.009     41.493  30.369239     3.7236      7.031   258.6690 2.5449e+01     6.9293      1.949      2.826    11.5869   999.5718 0.0000e+00
      1.988      0.022     5.9811     80.512     41.431  30.325201     3.7347      7.031   258.7901 2.5468e+01     6.9024      1.950      2.828    11.5887   999.5716 0.0000e+00
      1.989      0.026     6.0109     81.016     41.403  30.305595     3.6997      7.032   258.9154 2.5391e+01     6.9106      1.950      2.828    11.5898   999.5715 0.0000e+00
      1.995      0.033     6.0515     81.510     41.426  30.322546     3.4477      7.032   258.9787 2.4933e+01     7.0943      1.953      2.832    11.5912   999.5714 0.0000e+00
      2.007      0.040     6.0892     81.965     41.450  30.339793     3.0112      7.031   259.0390 2.4286e+01     7.4197      1.967      2.853    11.5932   999.5712 0.0000e+00
      2.023      0.046     6.1272     82.341     41.428  30.323773     2.7821      7.031   259.0425 2.3781e+01     7.6011      1.984      2.877    11.5947   999.5711 0.0000e+00
      2.038      0.048     6.1656     82.608     41.421  30.319211     2.7671      7.031   259.0213 2.3250e+01     7.6164      1.998      2.897    11.5955   999.5711 0.0000e+00
      2.052      0.046     6.2040     82.762     41.461  30.348079     2.7430      7.031   259.1265 2.2725e+01     7.4735      2.013      2.920    11.5957   999.5711 0.0000e+00
      2.063      0.043     6.2400     82.815     41.471  30.355536     2.7079      7.032   259.1964 2.2473e+01     7.2494      2.025      2.937    11.5951   999.5713 0.0000e+00
      2.071      0.040     6.2694     82.787     41.457  30.345924     2.6983      7.032   259.0916 2.2272e+01     7.1681      2.031      2.946    11.5953   999.5712 0.0000e+00
      2.079      0.038     6.2897     82.730     41.474  30.358770     2.7048      7.032   259.0641 2.1921e+01     7.1780      2.039      2.957    11.5963   999.5711 0.0000e+00
      2.086      0.036     6.3008     82.692     41.508  30.383948     2.7348      7.032   259.2086 2.1623e+01     7.2711      2.046      2.967    11.5964   999.5712 0.0000e+00
      2.096      0.035     6.3049     82.691     41.525  30.396526     2.7830      7.032   259.3754 2.1319e+01     7.4751      2.053      2.978    11.5965   999.5712 0.0000e+00
      2.108      0.035     6.3005     82.702     41.508  30.383940     2.8028      7.033   259.4465 2.0915e+01     7.6119      2.068      3.000    11.5968   999.5713 0.0000e+00
      2.119      0.035     6.2951     82.712     41.473  30.358681     2.8092      7.033   259.4657 2.0682e+01     7.6143      2.080      3.018    11.5970   999.5713 0.0000e+00
      2.125      0.034     6.2913     82.742     41.453  30.344951     2.8597      7.034   259.5216 2.0508e+01     7.5697      2.082      3.020    11.5971   999.5713 0.0000e+00
      2.131      0.030     6.2927     82.817     41.453  30.344839     2.9449      7.035   259.6057 2.0148e+01     7.5647      2.087      3.028    11.5970   999.5714 0.0000e+00
      2.140      0.024     6.2936     82.905     41.470  30.357321     2.9986      7.035   259.7086 1.9868e+01     7.5852      2.099      3.045    11.5973   999.5714 0.0000e+00
      2.149      0.016     6.2941     82.952     41.486  30.368961     2.9977      7.035   259.7333 1.9761e+01     7.5566      2.109      3.059    11.5980   999.5713 0.0000e+00
      2.155      0.007     6.2947     82.968     41.472  30.358672     2.9266      7.035   259.7327 1.9687e+01     7.3173      2.114      3.067    11.5988   999.5713 0.0000e+00
      2.157      0.001     6.3011     82.985     41.472  30.359825     2.8143      7.035   259.7871 1.9785e+01     6.9199      2.116      3.070    11.5990   999.5713 0.0000e+00
      2.152     -0.002     6.3109     83.015     41.503  30.382908     2.7585      7.034   259.7884 2.0141e+01     6.7174      2.113      3.066    11.5990   999.5713 0.0000e+00
      2.143     -0.002     6.3129     83.052     41.503  30.383948     2.7542      7.032   259.8339 2.0430e+01     6.7040      2.099      3.046    11.5990   999.5712 0.0000e+00
      2.138     -0.002     6.3135     83.105     41.488  30.372402     2.7449      7.030   259.9939 2.0271e+01     6.7250      2.089      3.031    11.5990   999.5711 0.0000e+00
      2.144     -0.002     6.3140     83.174     41.485  30.370208     2.7683      7.029   260.0887 1.9870e+01     6.8400      2.101      3.047    11.5994   999.5711 0.0000e+00
      2.153      0.000     6.3172     83.246     41.468  30.357423     2.8378      7.030   260.1188 1.9721e+01     7.0131      2.116      3.068    11.6004   999.5711 0.0000e+00
      2.154      0.005     6.3187     83.300     41.450  30.344724     2.8737      7.030   260.2718 1.9951e+01     7.1144      2.116      3.069    11.6013   999.5710 0.0000e+00
      2.147      0.011     6.3231     83.321     41.449  30.343580     2.8737      7.029   260.4765 2.0284e+01     7.1468      2.105      3.055    11.6016   999.5709 0.0000e+00
      2.140      0.016     6.3289     83.332     41.450  30.343589     2.8806      7.027   260.6150 2.0318e+01     7.3071      2.095      3.038    11.6012   999.5709 0.0000e+00
      2.143      0.021     6.3345     83.344     41.453  30.344837     2.8792      7.023   260.7413 1.9913e+01     7.6105      2.096      3.040    11.6009   999.5710 0.0000e+00
      2.158      0.026     6.3402     83.349     41.474  30.358671     2.8657      7.022   260.8855 1.9303e+01     7.7667      2.114      3.067    11.6009   999.5711 0.0000e+00
      2.176      0.031     6.3399     83.343     41.509  30.383940     2.8647      7.022   260.9816 1.8910e+01     7.7871      2.138      3.102    11.6006   999.5712 0.0000e+00
      2.186      0.033     6.3410     83.332     41.526  30.396536     2.8757      7.021   261.0428 1.8870e+01     7.8576      2.148      3.115    11.6000   999.5713 0.0000e+00
      2.188      0.032     6.3426     83.344     41.508  30.384064     2.8770      7.021   261.1085 1.8846e+01     7.8975      2.145      3.111    11.5989   999.5714 0.0000e+00
      2.191      0.028     6.3428     83.396     41.475  30.360045     2.8715      7.022   261.0886 1.8667e+01     7.8440      2.146      3.113    11.5975   999.5716 0.0000e+00
      2.199      0.026     6.3430     83.509     41.475  30.359941     2.8709      7.022   261.0611 1.8416e+01     7.7998      2.154      3.124    11.5969   999.5717 0.0000e+00
      2.209      0.026     6.3404     83.651     41.505  30.382807     2.8871      7.022   261.1201 1.8160e+01     7.8225      2.167      3.143    11.5970   999.5718 0.0000e+00
      2.218      0.027     6.3415     83.741     41.505  30.382702     2.9192      7.023   261.1986 1.7990e+01     7.8557      2.176      3.157    11.5971   999.5718 0.0000e+00
      2.223      0.027     6.3449     83.826     41.472  30.358672     2.9383      7.024   261.2362 1.7878e+01     7.8410      2.179      3.161    11.5970   999.5718 0.0000e+00
      2.228      0.026     6.3524     83.948     41.455  30.346085     2.9447      7.025   261.2299 1.7759e+01     7.8410      2.184      3.167    11.5972   999.5718 0.0000e+00
      2.234      0.024     6.3693     84.008     41.471  30.357423     2.9787      7.027   261.2094 1.7606e+01     7.9871      2.192      3.178    11.5979   999.5718 0.0000e+00
      2.241      0.024     6.3726     84.018     41.487  30.368847     3.0291      7.029   261.1600 1.7396e+01     8.1651      2.197      3.187    11.5984   999.5717 0.0000e+00
      2.247      0.026     6.3754     84.054     41.471  30.357300     3.0509      7.030   261.1497 1.7239e+01     8.2245      2.203      3.196    11.5985   999.5717 0.0000e+00
      2.252      0.030     6.3917     84.080     41.453  30.344723     3.0609      7.030   261.2571 1.7154e+01     8.2459      2.209      3.204    11.5983   999.5718 0.0000e+00
      2.257      0.034     6.3950     84.091     41.451  30.343684     3.0714      7.030   261.3392 1.6935e+01     8.2601      2.212      3.209    11.5981   999.5718 0.0000e+00
      2.266      0.037     6.3909     84.147     41.453  30.344736     3.0822      7.031   261.2817 1.6567e+01     8.2642      2.221      3.220    11.5978   999.5719 0.0000e+00
      2.279      0.040     6.3973     84.211     41.470  30.357436     3.1047      7.032   261.2507 1.6219e+01     8.2632      2.235      3.241    11.5980   999.5719 0.0000e+00
      2.293      0.045     6.3997     84.247     41.486  30.370334     3.1178      7.033   261.3941 1.5925e+01     8.2479      2.250      3.262    11.5986   999.5719 0.0000e+00
      2.305      0.049     6.3959     84.281     41.490  30.373776     3.1114      7.032   261.5524 1.5690e+01     8.2439      2.261      3.280    11.5990   999.5720 0.0000e+00
      2.314      0.053     6.4035     84.325     41.525  30.399052     3.0362      7.030   261.7019 1.5462e+01     8.2144      2.269      3.290    11.5993   999.5720 0.0000e+00
      2.325      0.055     6.4095     84.379     41.556  30.422122     2.9018      7.029   261.9984 1.5091e+01     8.1209      2.277      3.302    11.5996   999.5720 0.0000e+00
      2.342      0.056     6.4102     84.432     41.524  30.398892     2.8304      7.026   262.2118 1.4586e+01     8.0305      2.295      3.329    11.5998   999.5721 0.0000e+00
      2.361      0.055     6.4132     84.472     41.487  30.372003     2.8239      7.023   262.2163 1.4128e+01     8.0069      2.316      3.360    11.6002   999.5721 0.0000e+00
      2.378      0.051     6.4160     84.499     41.458  30.350835     2.8401      7.022   262.2259 1.3768e+01     8.0319      2.333      3.382    11.6005   999.5721 0.0000e+00
      2.392      0.044     6.4208     84.519     41.434  30.333320     2.8701      7.022   262.2418 1.3492e+01     8.0703      2.347      3.405    11.6006   999.5722 0.0000e+00
      2.402      0.035     6.4248     84.511     41.458  30.350599     2.8830      7.023   262.2361 1.3346e+01     8.1107      2.358      3.420    11.6011   999.5722 0.0000e+00
      2.406      0.027     6.4283     84.463     41.484  30.369380     2.8835      7.024   262.2436 1.3278e+01     8.1270      2.360      3.422    11.6017   999.5721 0.0000e+00
      2.408      0.021     6.4293     84.411     41.486  30.370033     2.9098      7.025   262.2462 1.3196e+01     8.1372      2.361      3.425    11.6021   999.5721 0.0000e+00
      2.412      0.019     6.4316     84.374     41.470  30.358496     2.9670      7.026   262.2672 1.3053e+01     8.2005      2.364      3.429    11.6021   999.5721 0.0000e+00
      2.417      0.019     6.4326     84.351     41.467  30.356794     3.0037      7.027   262.2393 1.2877e+01     8.2702      2.369      3.436    11.6016   999.5722 0.0000e+00
      2.422      0.022     6.4264     84.323     41.457  30.349454     3.0062      7.028   262.1666 1.2779e+01     8.2913      2.377      3.447    11.6008   999.5723 0.0000e+00
      2.427      0.027     6.4232     84.277     41.434  30.333206     2.9969      7.029   262.1630 1.2720e+01     8.2592      2.380      3.452    11.6000   999.5724 0.0000e+00
      2.432      0.032     6.4198     84.252     41.457  30.350702     2.9869      7.029   262.1955 1.2574e+01     8.2097      2.383      3.456    11.5995   999.5725 0.0000e+00
      2.442      0.037     6.4185     84.247     41.484  30.370640     2.9897      7.029   262.2151 1.2369e+01     8.2170      2.394      3.472    11.5997   999.5725 0.0000e+00
      2.453      0.040     6.4179     84.227     41.502  30.383903     2.9958      7.028   262.2288 1.2147e+01     8.2817      2.405      3.488    11.6004   999.5725 0.0000e+00
      2.465      0.043     6.4117     84.180     41.502  30.384154     2.9914      7.028   262.2751 1.1888e+01     8.3032      2.416      3.504    11.6012   999.5724 0.0000e+00
      2.480      0.047     6.4098     84.118     41.487  30.373670     2.9629      7.029   262.3456 1.1660e+01     8.1832      2.433      3.528    11.6017   999.5725 0.0000e+00
      2.491      0.052     6.4116     84.087     41.500  30.384055     2.9113      7.030   262.4783 1.1521e+01     7.9775      2.445      3.546    11.6020   999.5725 0.0000e+00
      2.500      0.057     6.4093     84.111     41.498  30.382806     2.8795      7.030   262.6738 1.1360e+01     7.8474      2.448      3.551    11.6020   999.5725 0.0000e+00
      2.512      0.062     6.4063     84.168     41.464  30.358580     2.8814      7.029   262.8172 1.1060e+01     7.8225      2.460      3.568    11.6022   999.5726 0.0000e+00
      2.531      0.067     6.3996     84.256     41.444  30.344953     2.8899      7.028   262.9220 1.0693e+01     7.8741      2.482      3.600    11.6030   999.5726 0.0000e+00
      2.553      0.072     6.3957     84.385     41.443  30.344953     2.8872      7.026   262.9938 1.0341e+01     7.9798      2.503      3.632    11.6042   999.5725 0.0000e+00
      2.574      0.074     6.3992     84.541     41.461  30.358579     2.8837      7.026   262.9971 1.0015e+01     8.0510      2.525      3.663    11.6053   999.5725 0.0000e+00
      2.594      0.073     6.4030     84.686     41.494  30.382797     2.8914      7.026   262.9626 9.7451e+00     8.0798      2.546      3.692    11.6061   999.5725 0.0000e+00
      2.612      0.069     6.4094     84.791     41.495  30.383950     2.8943      7.027   263.0064 9.5000e+00     8.1317      2.561      3.714    11.6068   999.5725 0.0000e+00
      2.628      0.064     6.4188     84.827     41.480  30.372527     2.8838      7.027   263.0972 9.2576e+00     8.1870      2.577      3.738    11.6076   999.5725 0.0000e+00
      2.644      0.059     6.4326     84.807     41.479  30.371582     2.8762      7.027   263.1138 9.0640e+00     8.1916      2.594      3.761    11.6083   999.5725 0.0000e+00
      2.658      0.055     6.4434     84.760     41.481  30.372528     2.8808      7.027   263.1211 8.8867e+00     8.2191      2.606      3.780    11.6088   999.5725 0.0000e+00
      2.672      0.053     6.4530     84.680     41.497  30.383962     2.8700      7.027   263.1846 8.7045e+00     8.2256      2.621      3.801    11.6091   999.5726 0.0000e+00
      2.684      0.053     6.4555     84.600     41.496  30.382912     2.8318      7.026   263.2799 8.5616e+00     8.1058      2.633      3.818    11.6084   999.5727 0.0000e+00
      2.694      0.054     6.4520     84.567     41.465  30.359838     2.8092      7.026   263.4121 8.4027e+00     8.0158      2.640      3.829    11.6074   999.5729 0.0000e+00
      2.707      0.057     6.4503     84.574     41.465  30.358798     2.8139      7.027   263.4934 8.1827e+00     8.0225      2.653      3.848    11.6070   999.5729 0.0000e+00
      2.724      0.058     6.4428     84.600     41.480  30.370335     2.8450      7.027   263.4889 7.9442e+00     7.8920      2.672      3.875    11.6065   999.5730 0.0000e+00
      2.741      0.057     6.4348     84.655     41.483  30.372425     2.8992      7.027   263.5296 7.7235e+00     7.5841      2.688      3.899    11.6061   999.5732 0.0000e+00
      2.757      0.052     6.4329     84.722     41.499  30.384066     2.9320      7.027   263.5549 7.5322e+00     7.3810      2.704      3.922    11.6057   999.5733 0.0000e+00
      2.773      0.044     6.4352     84.772     41.499  30.384170     2.9376      7.027   263.5364 7.3890e+00     7.3362      2.722      3.948    11.6053   999.5735 0.0000e+00
      2.785      0.033     6.4354     84.796     41.484  30.373682     2.9418      7.027   263.5642 7.3104e+00     7.3382      2.734      3.965    11.6053   999.5735 0.0000e+00
      2.790      0.022     6.4407     84.788     41.499  30.384170     3.0168      7.028   263.6324 7.2821e+00     7.3726      2.737      3.969    11.6055   999.5735 0.0000e+00
      2.793      0.011     6.4467     84.747     41.499  30.384066     3.1596      7.029   263.6733 7.2819e+00     7.3914      2.740      3.974    11.6058   999.5735 0.0000e+00
      2.793      0.001     6.4504     84.680     41.484  30.372425     3.2293      7.029   263.7145 7.2866e+00     7.3691      2.741      3.974    11.6063   999.5735 0.0000e+00
      2.791     -0.005     6.4524     84.604     41.481  30.370335     3.2180      7.029   263.7860 7.2931e+00     7.3651      2.738      3.970    11.6062   999.5734 0.0000e+00
      2.788     -0.007     6.4516     84.528     41.466  30.358797     3.1184      7.029   263.8491 7.3245e+00     7.4076      2.735      3.967    11.6060   999.5735 0.0000e+00
      2.784     -0.006     6.4491     84.464     41.467  30.359827     2.9355      7.030   263.8764 7.3975e+00     7.4898      2.731      3.961    11.6058   999.5735 0.0000e+00
      2.779     -0.004     6.4426     84.411     41.499  30.382797     2.8364      7.031   263.8577 7.4354e+00     7.5731      2.724      3.951    11.6051   999.5735 0.0000e+00
      2.779     -0.001     6.4376     84.348     41.499  30.382692     2.8304      7.031   263.8805 7.3942e+00     7.5956      2.723      3.949    11.6046   999.5736 0.0000e+00
      2.783      0.003     6.4310     84.282     41.466  30.358558     2.8704      7.031   263.8936 7.3645e+00     7.5972      2.730      3.961    11.6044   999.5736 0.0000e+00
      2.786      0.008     6.4259     84.208     41.447  30.344827     2.9475      7.032   263.9301 7.3572e+00     7.5932      2.734      3.966    11.6041   999.5736 0.0000e+00
      2.787      0.014     6.4233     84.122     41.445  30.343580     2.9825      7.032   264.0650 7.3520e+00     7.5795      2.734      3.965    11.6040   999.5737 0.0000e+00
      2.787      0.021     6.4179     84.061     41.445  30.343467     2.9903      7.032   264.1471 7.3406e+00     7.5954      2.732      3.963    11.6039   999.5737 0.0000e+00
      2.789      0.027     6.4127     84.051     41.445  30.343466     3.0331      7.031   264.1480 7.2409e+00     7.6548      2.733      3.963    11.6038   999.5737 0.0000e+00
      2.799      0.032     6.4084     84.076     41.445  30.343570     3.0929      7.031   264.1630 7.0679e+00     7.7727      2.745      3.981    11.6040   999.5737 0.0000e+00
      2.813      0.036     6.3995     84.126     41.446  30.344725     3.1229      7.031   264.2418 6.9012e+00     7.8742      2.759      4.002    11.6037   999.5738 0.0000e+00
      2.828      0.040     6.3942     84.182     41.463  30.357425     3.1194      7.032   264.3260 6.7567e+00     7.8999      2.773      4.022    11.6037   999.5739 0.0000e+00
      2.839      0.043     6.3946     84.250     41.481  30.370220     3.0667      7.033   264.4069 6.6715e+00     7.9846      2.786      4.041    11.6039   999.5739 0.0000e+00
      2.846      0.045     6.3960     84.337     41.484  30.372517     2.9804      7.033   264.5314 6.6257e+00     8.1766      2.790      4.047    11.6043   999.5739 0.0000e+00
      2.852      0.046     6.4012     84.413     41.500  30.385199     2.9426      7.032   264.6273 6.5168e+00     8.2887      2.794      4.052    11.6046   999.5739 0.0000e+00
      2.864      0.046     6.4046     84.458     41.515  30.396641     2.9480      7.030   264.7058 6.3306e+00     8.2908      2.806      4.070    11.6046   999.5739 0.0000e+00
      2.882      0.045     6.4095     84.494     41.497  30.383961     2.9424      7.028   264.7925 6.1371e+00     8.2681      2.826      4.099    11.6047   999.5740 0.0000e+00
      2.899      0.043     6.4171     84.547     41.462  30.358788     2.9176      7.027   264.8158 6.0061e+00     8.1444      2.845      4.127    11.6048   999.5741 0.0000e+00
      2.909      0.039     6.4239     84.613     41.444  30.346107     2.8916      7.027   264.8146 5.9563e+00     7.9757      2.855      4.140    11.6056   999.5741 0.0000e+00
      2.915      0.032     6.4259     84.680     41.459  30.357540     2.8796      7.028   264.8645 5.9186e+00     7.8993      2.858      4.145    11.6067   999.5740 0.0000e+00
      2.921      0.026     6.4278     84.739     41.477  30.370118     2.8672      7.028   264.9023 5.8711e+00     7.8434      2.864      4.154    11.6073   999.5739 0.0000e+00
      2.926      0.023     6.4322     84.798     41.478  30.371270     2.8283      7.028   264.9275 5.8548e+00     7.6936      2.871      4.164    11.6079   999.5739 0.0000e+00
      2.930      0.027     6.4372     84.831     41.479  30.371468     2.7739      7.028   264.9973 5.8429e+00     7.4969      2.873      4.167    11.6084   999.5738 0.0000e+00
      2.934      0.035     6.4432     84.813     41.481  30.372518     2.7467      7.028   264.9727 5.8074e+00     7.3987      2.876      4.170    11.6087   999.5738 0.0000e+00
      2.940      0.046     6.4464     84.791     41.497  30.383961     2.7508      7.028   264.8881 5.7294e+00     7.3909      2.881      4.179    11.6088   999.5738 0.0000e+00
      2.952      0.058     6.4518     84.801     41.496  30.382912     2.7982      7.028   264.9199 5.5811e+00     7.4688      2.892      4.194    11.6082   999.5739 0.0000e+00
      2.972      0.067     6.4565     84.829     41.464  30.359829     2.8765      7.028   265.0136 5.3973e+00     7.5861      2.913      4.224    11.6079   999.5741 0.0000e+00
      2.996      0.071     6.4525     84.871     41.461  30.358685     2.9265      7.029   265.0745 5.2049e+00     7.6294      2.938      4.261    11.6074   999.5742 0.0000e+00
      3.021      0.069     6.4497     84.920     41.474  30.369088     2.9512      7.030   265.1402 5.0170e+00     7.6316      2.963      4.298    11.6065   999.5744 0.0000e+00
      3.041      0.064     6.4519     84.961     41.459  30.358694     2.9420      7.030   265.2058 4.8981e+00     7.6135      2.985      4.330    11.6064   999.5746 0.0000e+00
      3.054      0.056     6.4535     84.997     41.460  30.359933     2.9019      7.031   265.1801 4.8420e+00     7.6069      2.997      4.347    11.6070   999.5746 0.0000e+00
      3.062      0.050     6.4566     85.017     41.493  30.384065     2.8833      7.032   265.1731 4.7636e+00     7.6171      3.003      4.354    11.6086   999.5744 0.0000e+00
      3.071      0.046     6.4611     85.012     41.510  30.396652     2.8804      7.033   265.2071 4.6526e+00     7.6058      3.011      4.368    11.6097   999.5744 0.0000e+00
      3.081      0.046     6.4635     85.009     41.494  30.385211     2.8667      7.033   265.3335 4.5536e+00     7.6004      3.021      4.382    11.6101   999.5743 0.0000e+00
      3.093      0.052     6.4663     85.039     41.476  30.372642     2.8387      7.032   265.5823 4.4638e+00     7.6179      3.033      4.399    11.6105   999.5743 0.0000e+00
      3.106      0.060     6.4692     85.116     41.475  30.371594     2.8116      7.030   265.7197 4.3651e+00     7.6214      3.047      4.419    11.6107   999.5744 0.0000e+00
      3.121      0.069     6.4668     85.226     41.477  30.372530     2.8081      7.027   265.7903 4.2562e+00     7.6099      3.060      4.438    11.6109   999.5744 0.0000e+00
      3.139      0.075     6.4665     85.338     41.492  30.383962     2.8218      7.024   265.9195 4.1176e+00     7.6099      3.076      4.461    11.6111   999.5745 0.0000e+00
      3.162      0.079     6.4677     85.436     41.491  30.382912     2.8388      7.023   266.0770 3.9569e+00     7.5887      3.100      4.497    11.6114   999.5746 0.0000e+00
      3.187      0.081     6.4741     85.513     41.460  30.359829     2.8577      7.023   266.1464 3.8131e+00     7.5502      3.127      4.535    11.6118   999.5747 0.0000e+00
      3.210      0.080     6.4838     85.572     41.459  30.358685     2.8686      7.023   266.1559 3.6942e+00     7.5697      3.150      4.567    11.6118   999.5748 0.0000e+00
      3.230      0.077     6.4924     85.623     41.474  30.369089     2.8754      7.023   266.2782 3.5974e+00     7.6285      3.169      4.596    11.6112   999.5749 0.0000e+00
      3.248      0.074     6.5004     85.674     41.460  30.358706     2.8960      7.023   266.4208 3.5245e+00     7.6381      3.186      4.621    11.6107   999.5751 0.0000e+00
      3.263      0.072     6.5059     85.722     41.463  30.360058     2.9175      7.023   266.5042 3.4465e+00     7.5883      3.199      4.640    11.6102   999.5752 0.0000e+00
      3.280      0.072     6.5106     85.783     41.498  30.385430     2.9283      7.023   266.5120 3.3410e+00     7.5504      3.214      4.663    11.6098   999.5753 0.0000e+00
      3.300      0.072     6.5135     85.875     41.534  30.411652     2.9393      7.023   266.4290 3.2415e+00     7.5728      3.236      4.693    11.6093   999.5755 0.0000e+00
      3.320      0.072     6.5185     85.982     41.550  30.423295     2.9200      7.023   266.4467 3.1595e+00     7.6622      3.256      4.722    11.6090   999.5756 0.0000e+00
      3.339      0.069     6.5213     86.067     41.517  30.399285     2.8604      7.023   266.5543 3.0653e+00     7.7795      3.274      4.749    11.6088   999.5757 0.0000e+00
      3.359      0.064     6.5250     86.098     41.483  30.375171     2.8164      7.023   266.6112 2.9731e+00     7.8444      3.295      4.778    11.6085   999.5759 0.0000e+00
      3.376      0.056     6.5330     86.066     41.498  30.385566     2.8218      7.024   266.6183 2.9053e+00     7.8566      3.314      4.807    11.6083   999.5760 0.0000e+00
      3.389      0.050     6.5420     85.996     41.515  30.398048     2.9428      7.025   266.6404 2.8536e+00     7.8617      3.325      4.823    11.6081   999.5760 0.0000e+00
      3.399      0.045     6.5496     85.929     41.516  30.399182     3.1433      7.026   266.7060 2.8199e+00     7.8401      3.334      4.835    11.6082   999.5761 0.0000e+00
      3.405      0.043     6.5521     85.858     41.517  30.399276     3.2436      7.027   266.7232 2.8025e+00     7.7922      3.339      4.844    11.6084   999.5760 0.0000e+00
      3.413      0.045     6.5493     85.784     41.517  30.399181     3.2458      7.026   266.7627 2.7637e+00     7.7742      3.345      4.851    11.6083   999.5761 0.0000e+00
      3.424      0.049     6.5416     85.755     41.515  30.398028     3.2048      7.026   266.8384 2.6937e+00     7.8518      3.358      4.870    11.6084   999.5762 0.0000e+00
      3.439      0.054     6.5377     85.758     41.496  30.385337     3.1288      7.026   266.8639 2.6289e+00     8.0095      3.373      4.892    11.6085   999.5762 0.0000e+00
      3.455      0.059     6.5333     85.769     41.478  30.372645     3.0812      7.026   266.9002 2.5595e+00     8.1081      3.388      4.913    11.6081   999.5763 0.0000e+00
      3.472      0.061     6.5239     85.790     41.476  30.371482     3.0626      7.027   266.9328 2.4806e+00     8.1259      3.405      4.938    11.6083   999.5764 0.0000e+00
      3.490      0.060     6.5235     85.788     41.475  30.371282     3.0517      7.027   266.9147 2.4247e+00     8.0939      3.423      4.965    11.6090   999.5764 0.0000e+00
      3.506      0.060     6.5246     85.775     41.473  30.370225     3.0448      7.027   266.9391 2.3866e+00     7.9508      3.439      4.989    11.6096   999.5764 0.0000e+00
      3.521      0.059     6.5236     85.796     41.457  30.358697     3.0309      7.027   267.0547 2.3581e+00     7.7392      3.455      5.010    11.6103   999.5764 0.0000e+00
      3.532      0.058     6.5279     85.848     41.457  30.358809     3.0137      7.027   267.1086 2.3230e+00     7.5997      3.463      5.022    11.6109   999.5764 0.0000e+00
      3.545      0.056     6.5270     85.919     41.475  30.371585     2.9927      7.026   267.0741 2.2475e+00     7.5753      3.473      5.037    11.6112   999.5764 0.0000e+00
      3.563      0.054     6.5235     86.002     41.495  30.386259     2.9676      7.026   267.1543 2.1580e+00     7.6082      3.495      5.068    11.6114   999.5765 0.0000e+00
      3.580      0.054     6.5263     86.088     41.527  30.409324     2.9529      7.026   267.3038 2.1086e+00     7.6372      3.514      5.095    11.6114   999.5765 0.0000e+00
      3.592      0.053     6.5303     86.169     41.510  30.396643     2.9542      7.026   267.3323 2.0864e+00     7.6312      3.523      5.108    11.6116   999.5766 0.0000e+00
      3.602      0.052     6.5358     86.224     41.460  30.359839     2.9581      7.026   267.3269 2.0517e+00     7.6012      3.531      5.121    11.6118   999.5766 0.0000e+00
      3.615      0.050     6.5427     86.253     41.439  30.345060     2.9566      7.026   267.3249 2.0102e+00     7.6019      3.545      5.141    11.6114   999.5767 0.0000e+00
      3.629      0.049     6.5489     86.268     41.439  30.344861     2.9523      7.026   267.3090 1.9792e+00     7.6394      3.560      5.164    11.6109   999.5769 0.0000e+00
      3.642      0.050     6.5563     86.259     41.456  30.357429     2.9496      7.027   267.3923 1.9477e+00     7.6291      3.572      5.180    11.6105   999.5769 0.0000e+00
      3.654      0.050     6.5604     86.216     41.474  30.370110     2.9501      7.028   267.4719 1.9139e+00     7.5757      3.583      5.197    11.6104   999.5770 0.0000e+00
      3.666      0.048     6.5619     86.148     41.476  30.371272     2.9754      7.028   267.4112 1.8865e+00     7.5509      3.595      5.216    11.6107   999.5770 0.0000e+00
      3.678      0.045     6.5636     86.072     41.477  30.371482     3.0305      7.028   267.3465 1.8436e+00     7.5587      3.606      5.231    11.6108   999.5770 0.0000e+00
      3.691      0.044     6.5632     85.992     41.479  30.372644     3.0610      7.029   267.3772 1.7893e+00     7.6044      3.620      5.250    11.6108   999.5771 0.0000e+00
      3.703      0.046     6.5598     85.925     41.496  30.385326     3.0581      7.029   267.4382 1.7624e+00     7.6445      3.634      5.271    11.6108   999.5772 0.0000e+00
      3.712      0.050     6.5536     85.876     41.514  30.397903     3.0562      7.028   267.5689 1.7558e+00     7.6176      3.642      5.282    11.6105   999.5772 0.0000e+00
      3.719      0.056     6.5487     85.826     41.514  30.397809     3.0643      7.027   267.6665 1.7268e+00     7.6069      3.645      5.287    11.6097   999.5774 0.0000e+00
      3.733      0.062     6.5415     85.770     41.496  30.384184     3.0782      7.027   267.6710 1.6682e+00     7.6454      3.658      5.305    11.6091   999.5775 0.0000e+00
      3.753      0.067     6.5363     85.725     41.464  30.360069     3.0847      7.027   267.7962 1.6086e+00     7.6243      3.680      5.337    11.6088   999.5776 0.0000e+00
      3.776      0.069     6.5335     85.704     41.464  30.360060     3.0733      7.026   267.8893 1.5493e+00     7.5822      3.703      5.371    11.6086   999.5778 0.0000e+00
      3.798      0.066     6.5301     85.685     41.497  30.384071     3.0280      7.026   267.8501 1.4938e+00     7.6273      3.726      5.403    11.6083   999.5779 0.0000e+00
      3.817      0.058     6.5252     85.646     41.514  30.396561     2.9706      7.027   267.8383 1.4600e+00     7.6788      3.747      5.433    11.6080   999.5781 0.0000e+00
      3.831      0.049     6.5209     85.602     41.497  30.384173     2.9508      7.029   267.8325 1.4437e+00     7.6801      3.759      5.451    11.6077   999.5781 0.0000e+00
      3.838      0.043     6.5207     85.590     41.466  30.361203     2.9623      7.030   267.8670 1.4485e+00     7.7081      3.765      5.461    11.6075   999.5782 0.0000e+00
      3.842      0.041     6.5196     85.585     41.482  30.372646     3.0923      7.030   267.9966 1.4563e+00     7.8211      3.767      5.464    11.6074   999.5782 0.0000e+00
      3.849      0.044     6.5169     85.558     41.514  30.395618     3.3353      7.029   268.1094 1.4335e+00     7.9642      3.771      5.471    11.6072   999.5783 0.0000e+00
      3.861      0.051     6.5109     85.529     41.499  30.385139     3.4639      7.029   268.1127 1.3905e+00     8.0295      3.785      5.490    11.6071   999.5783 0.0000e+00
      3.877      0.058     6.5115     85.505     41.482  30.372857     3.4681      7.029   268.1218 1.3568e+00     8.0545      3.802      5.514    11.6069   999.5784 0.0000e+00
      3.895      0.064     6.5130     85.474     41.483  30.374018     3.3941      7.029   268.2192 1.3261e+00     8.0700      3.819      5.539    11.6067   999.5785 0.0000e+00
      3.915      0.066     6.5088     85.421     41.518  30.399182     3.2541      7.030   268.3447 1.2793e+00     8.0530      3.840      5.569    11.6067   999.5786 0.0000e+00
      3.934      0.064     6.5073     85.347     41.551  30.423287     3.1803      7.030   268.4337 1.2326e+00     8.0446      3.860      5.598    11.6066   999.5787 0.0000e+00
      3.950      0.060     6.5056     85.290     41.535  30.411654     3.1692      7.031   268.3496 1.2008e+00     8.0342      3.874      5.619    11.6066   999.5788 0.0000e+00
      3.964      0.056     6.5039     85.285     41.500  30.385443     3.0946      7.031   268.1881 1.1802e+00     7.9274      3.887      5.638    11.6065   999.5788 0.0000e+00
      3.977      0.055     6.5000     85.317     41.465  30.360185     2.9546      7.030   268.2881 1.1571e+00     7.7363      3.900      5.657    11.6065   999.5789 0.0000e+00
      3.988      0.058     6.4931     85.363     41.465  30.360082     2.8803      7.028   268.5263 1.1342e+00     7.6246      3.911      5.673    11.6065   999.5790 0.0000e+00
      3.998      0.064     6.4872     85.428     41.497  30.384194     2.8822      7.026   268.6592 1.1198e+00     7.6253      3.921      5.686    11.6065   999.5790 0.0000e+00
      4.013      0.070     6.4876     85.495     41.516  30.397914     2.8904      7.024   268.7756 1.0964e+00     7.7440      3.933      5.704    11.6067   999.5791 0.0000e+00
      4.035      0.075     6.4914     85.561     41.517  30.399049     2.8929      7.023   268.9020 1.0586e+00     7.9464      3.954      5.735    11.6067   999.5791 0.0000e+00
      4.061      0.079     6.4935     85.627     41.515  30.397914     2.8855      7.021   268.9826 1.0186e+00     8.0408      3.985      5.779    11.6069   999.5792 0.0000e+00
      4.085      0.079     6.4998     85.652     41.496  30.384194     2.8799      7.021   268.9753 9.8695e-01     8.0323      4.009      5.814    11.6071   999.5794 0.0000e+00
      4.105      0.078     6.5050     85.644     41.463  30.360061     2.8859      7.022   268.9008 9.5913e-01     8.0407      4.025      5.838    11.6072   999.5794 0.0000e+00
      4.122      0.075     6.5084     85.631     41.463  30.359947     2.8966      7.022   268.8559 9.2930e-01     8.0115      4.043      5.863    11.6074   999.5795 0.0000e+00
      4.138      0.074     6.5168     85.623     41.494  30.382822     2.8976      7.021   268.9482 9.0225e-01     7.9094      4.059      5.887    11.6076   999.5796 0.0000e+00
      4.154      0.076     6.5172     85.620     41.494  30.382812     2.8890      7.020   269.1564 8.7295e-01     7.8549      4.071      5.906    11.6081   999.5796 0.0000e+00
      4.173      0.080     6.5156     85.605     41.463  30.359832     2.8792      7.019   269.3079 8.3953e-01     7.8759      4.090      5.932    11.6084   999.5796 0.0000e+00
      4.196      0.080     6.5150     85.602     41.462  30.358802     2.8652      7.018   269.3179 8.1359e-01     7.9340      4.116      5.969    11.6084   999.5797 0.0000e+00
      4.221      0.077     6.5133     85.616     41.478  30.370347     2.8415      7.016   269.2765 7.8532e-01     8.0001      4.139      6.003    11.6082   999.5799 0.0000e+00
      4.245      0.070     6.5154     85.630     41.481  30.372518     2.8181      7.016   269.3240 7.4977e-01     8.0201      4.165      6.039    11.6079   999.5800 0.0000e+00
      4.265      0.062     6.5121     85.649     41.498  30.385043     2.8082      7.017   269.4623 7.3426e-01     8.0441      4.187      6.073    11.6077   999.5801 0.0000e+00
      4.276      0.057     6.5119     85.663     41.512  30.394882     2.7991      7.017   269.6582 7.2725e-01     8.0291      4.194      6.084    11.6076   999.5802 0.0000e+00
      4.281      0.056     6.5142     85.659     41.471  30.364571     2.7856      7.016   269.8861 7.0878e-01     7.9046      4.198      6.088    11.6073   999.5803 0.0000e+00
      4.289      0.059     6.5144     85.671     41.432  30.335823     2.7754      7.014   270.0663 6.9012e-01     7.8161      4.205      6.098    11.6072   999.5803 0.0000e+00
      4.304      0.065     6.5164     85.733     41.471  30.364572     2.7619      7.013   270.1163 6.6551e-01     7.8110      4.217      6.117    11.6071   999.5804 0.0000e+00
      4.325      0.071     6.5183     85.808     41.513  30.394894     2.7361      7.013   270.0603 6.3174e-01     7.7780      4.240      6.150    11.6070   999.5805 0.0000e+00
      4.350      0.074     6.5169     85.858     41.499  30.385168     2.7062      7.012   270.0774 6.0326e-01     7.7115      4.267      6.189    11.6069   999.5806 0.0000e+00
      4.375      0.070     6.5158     85.916     41.484  30.373890     2.6946      7.011   270.1512 5.8622e-01     7.6632      4.292      6.226    11.6067   999.5807 0.0000e+00
      4.395      0.061     6.5224     86.002     41.500  30.385442     2.6909      7.010   270.2647 5.7482e-01     7.6201      4.313      6.255    11.6067   999.5809 0.0000e+00
      4.409      0.053     6.5300     86.065     41.517  30.397927     2.6965      7.010   270.4167 5.7353e-01     7.6482      4.326      6.274    11.6063   999.5810 0.0000e+00
      4.415      0.050     6.5321     86.068     41.517  30.397927     2.7284      7.010   270.4407 5.7958e-01     7.7744      4.330      6.280    11.6060   999.5810 0.0000e+00
      4.418      0.054     6.5351     86.035     41.500  30.385444     2.7469      7.009   270.3830 5.6926e-01     7.8340      4.330      6.281    11.6062   999.5810 0.0000e+00
      4.427      0.063     6.5441     85.984     41.484  30.373905     2.7382      7.007   270.4068 5.4688e-01     7.8124      4.337      6.291    11.6063   999.5810 0.0000e+00
      4.446      0.074     6.5506     85.926     41.500  30.385329     2.7443      7.006   270.5567 5.2805e-01     7.8082      4.355      6.318    11.6063   999.5811 0.0000e+00
      4.473      0.084     6.5488     85.879     41.516  30.396658     2.8378      7.005   270.7332 5.0677e-01     7.7177      4.386      6.362    11.6064   999.5812 0.0000e+00
      4.502      0.088     6.5463     85.838     41.498  30.383968     2.9924      7.004   270.9052 4.8393e-01     7.5372      4.416      6.404    11.6062   999.5814 0.0000e+00
      4.529      0.083     6.5424     85.794     41.463  30.358804     3.0627      7.003   271.0019 4.5615e-01     7.4292      4.441      6.441    11.6064   999.5815 0.0000e+00
      4.553      0.073     6.5367     85.758     41.446  30.346226     3.0544      7.002   270.9569 4.2563e-01     7.3608      4.468      6.480    11.6065   999.5816 0.0000e+00
      4.570      0.061     6.5340     85.748     41.464  30.358804     3.0663      7.002   270.8759 4.1339e-01     7.2675      4.485      6.504    11.6064   999.5817 0.0000e+00
      4.579      0.053     6.5307     85.717     41.498  30.383968     3.1022      7.004   270.7964 4.1213e-01     7.1862      4.491      6.513    11.6063   999.5818 0.0000e+00
      4.584      0.050     6.5278     85.634     41.515  30.396658     3.1238      7.005   270.7708 4.1237e-01     7.1645      4.496      6.520    11.6065   999.5817 0.0000e+00
      4.591      0.053     6.5230     85.547     41.500  30.385328     3.1195      7.005   270.8246 4.1587e-01     7.2014      4.502      6.529    11.6065   999.5818 0.0000e+00
      4.604      0.059     6.5243     85.467     41.485  30.373895     3.0942      7.005   270.9307 3.9872e-01     7.3378      4.511      6.543    11.6062   999.5818 0.0000e+00
      4.624      0.065     6.5245     85.400     41.501  30.385330     3.0687      7.007   271.0210 3.6527e-01     7.5357      4.532      6.573    11.6061   999.5819 0.0000e+00
      4.649      0.067     6.5142     85.351     41.516  30.396667     3.0634      7.010   270.9701 3.5039e-01     7.6279      4.560      6.614    11.6057   999.5821 0.0000e+00
      4.670      0.063     6.5090     85.301     41.498  30.384072     3.0555      7.011   270.8325 3.5234e-01     7.6330      4.582      6.645    11.6054   999.5823 0.0000e+00
      4.687      0.054     6.5023     85.257     41.465  30.359949     2.9910      7.011   270.7335 3.5338e-01     7.5324      4.597      6.667    11.6053   999.5823 0.0000e+00
      4.699      0.041     6.4967     85.229     41.464  30.358823     2.8813      7.012   270.6338 3.4873e-01     7.3294      4.611      6.689    11.6056   999.5824 0.0000e+00
      4.706      0.030     6.4943     85.207     41.480  30.370455     2.8217      7.014   270.5737 3.4233e-01     7.2102      4.617      6.697    11.6058   999.5824 0.0000e+00
      4.709      0.025     6.4899     85.182     41.485  30.373679     2.8169      7.016   270.6087 3.3830e-01     7.1724      4.618      6.697    11.6058   999.5824 0.0000e+00
      4.710      0.027     6.4861     85.160     41.518  30.397802     2.8139      7.017   270.6265 3.3723e-01     7.1665      4.620      6.700    11.6058   999.5824 0.0000e+00
      4.712      0.034     6.4844     85.158     41.533  30.408299     2.8036      7.017   270.6170 3.3056e-01     7.3031      4.619      6.698    11.6058   999.5824 0.0000e+00
      4.720      0.045     6.4832     85.186     41.485  30.373688     2.7874      7.017   270.6658 3.1923e-01     7.5134      4.625      6.707    11.6056   999.5825 0.0000e+00
      4.736      0.057     6.4811     85.212     41.466  30.360062     2.7737      7.017   270.7860 3.1850e-01     7.6114      4.643      6.735    11.6052   999.5826 0.0000e+00
      4.756      0.068     6.4791     85.234     41.481  30.370455     2.7673      7.017   270.8660 3.1545e-01     7.6042      4.664      6.767    11.6047   999.5827 0.0000e+00
      4.776      0.073     6.4777     85.279     41.484  30.372440     2.8068      7.018   270.8575 2.9391e-01     7.6218      4.683      6.793    11.6046   999.5829 0.0000e+00
      4.797      0.072     6.4820     85.339     41.500  30.384062     2.8951      7.020   270.8565 2.6850e-01     7.7586      4.704      6.822    11.6047   999.5829 0.0000e+00
      4.819      0.065     6.4840     85.386     41.500  30.384061     2.9509      7.021   270.8539 2.5012e-01     7.8823      4.727      6.856    11.6047   999.5830 0.0000e+00
      4.838      0.057     6.4838     85.426     41.485  30.372430     2.9610      7.022   270.8255 2.3978e-01     7.8714      4.748      6.886    11.6049   999.5831 0.0000e+00
      4.850      0.052     6.4881     85.467     41.482  30.370341     2.9307      7.022   270.8585 2.4677e-01     7.8238      4.759      6.901    11.6050   999.5831 0.0000e+00
      4.856      0.051     6.4937     85.489     41.467  30.358804     2.8621      7.021   270.9942 2.6141e-01     7.7992      4.761      6.906    11.6049   999.5832 0.0000e+00
      4.862      0.055     6.4971     85.505     41.468  30.359834     2.8245      7.020   271.0891 2.6093e-01     7.8023      4.766      6.913    11.6051   999.5832 0.0000e+00
      4.874      0.060     6.4989     85.532     41.499  30.382803     2.8235      7.019   271.0597 2.4828e-01     7.8616      4.776      6.928    11.6045   999.5833 0.0000e+00
      4.894      0.065     6.5042     85.542     41.499  30.382698     2.8067      7.018   271.0688 2.3572e-01     7.9586      4.795      6.955    11.6034   999.5835 0.0000e+00
      4.919      0.069     6.5048     85.518     41.466  30.358565     2.7692      7.018   271.1995 2.2350e-01     8.0259      4.825      6.998    11.6033   999.5836 0.0000e+00
      4.943      0.071     6.5048     85.468     41.447  30.344835     2.7421      7.018   271.2640 2.0688e-01     8.0514      4.852      7.036    11.6033   999.5838 0.0000e+00
      4.959      0.068     6.5092     85.418     41.444  30.343598     2.7482      7.018   271.2456 1.9287e-01     8.0711      4.865      7.055    11.6032   999.5839 0.0000e+00
      4.970      0.061     6.5095     85.385     41.444  30.343598     2.8081      7.020   271.3212 1.9138e-01     8.0676      4.871      7.066    11.6037   999.5838 0.0000e+00
      4.985      0.054     6.5076     85.366     41.446  30.344845     2.8941      7.021   271.3184 1.9665e-01     8.0417      4.888      7.089    11.6040   999.5839 0.0000e+00
      5.001      0.049     6.5030     85.363     41.465  30.358680     2.9386      7.021   271.2117 1.9220e-01     8.0523      4.906      7.116    11.6044   999.5839 0.0000e+00
      5.013      0.048     6.4983     85.391     41.499  30.383957     2.9462      7.021   271.2351 1.7184e-01     8.0652      4.917      7.132    11.6047   999.5839 0.0000e+00
      5.022      0.051     6.4963     85.445     41.516  30.396657     2.9260      7.021   271.3426 1.5644e-01     8.0669      4.926      7.144    11.6049   999.5839 0.0000e+00
      5.031      0.054     6.4949     85.494     41.500  30.385320     2.8853      7.021   271.3929 1.5487e-01     8.1052      4.933      7.154    11.6049   999.5840 0.0000e+00
      5.043      0.057     6.4939     85.519     41.484  30.373793     2.8699      7.022   271.4133 1.5786e-01     8.1032      4.942      7.167    11.6048   999.5840 0.0000e+00
      5.061      0.061     6.4958     85.519     41.498  30.384198     2.8787      7.022   271.5029 1.5616e-01     8.0752      4.961      7.195    11.6049   999.5841 0.0000e+00
      5.082      0.063     6.5015     85.499     41.498  30.384199     2.8879      7.022   271.5308 1.4935e-01     8.0946      4.986      7.231    11.6053   999.5842 0.0000e+00
      5.102      0.063     6.5056     85.481     41.483  30.373805     2.8597      7.021   271.4922 1.4780e-01     8.0418      5.006      7.261    11.6057   999.5843 0.0000e+00
      5.117      0.060     6.5071     85.461     41.498  30.385446     2.7891      7.021   271.5522 1.4572e-01     7.8963      5.019      7.279    11.6058   999.5843 0.0000e+00
      5.129      0.055     6.5076     85.448     41.514  30.398041     2.7450      7.021   271.6546 1.4002e-01     7.8099      5.029      7.294    11.6058   999.5844 0.0000e+00
      5.141      0.050     6.5044     85.462     41.515  30.399186     2.7435      7.021   271.7841 1.3597e-01     7.8169      5.041      7.311    11.6062   999.5844 0.0000e+00
      5.155      0.047     6.5039     85.482     41.514  30.399289     2.7529      7.021   271.9127 1.3054e-01     7.7839      5.055      7.332    11.6071   999.5843 0.0000e+00
      5.167      0.050     6.5021     85.488     41.513  30.399289     2.7554      7.022   272.0054 1.2557e-01     7.6726      5.070      7.354    11.6079   999.5843 0.0000e+00
      5.176      0.057     6.4991     85.465     41.513  30.399177     2.7474      7.022   272.1304 1.2518e-01     7.6178      5.077      7.364    11.6087   999.5843 0.0000e+00
      5.184      0.066     6.5019     85.389     41.511  30.397938     2.7511      7.021   272.2197 1.2605e-01     7.6135      5.081      7.368    11.6095   999.5842 0.0000e+00
      5.200      0.073     6.5034     85.276     41.492  30.384312     2.7825      7.020   272.2251 1.2502e-01     7.7518      5.096      7.390    11.6105   999.5842 0.0000e+00
      5.226      0.078     6.5040     85.160     41.461  30.361333     2.8151      7.020   272.1957 1.2416e-01     8.0772      5.124      7.432    11.6110   999.5842 0.0000e+00
      5.255      0.081     6.5035     85.046     41.479  30.373920     2.8245      7.019   272.1218 1.2727e-01     8.2702      5.156      7.478    11.6112   999.5844 0.0000e+00
      5.280      0.081     6.4973     84.962     41.528  30.409580     2.8181      7.019   272.1068 1.3024e-01     8.2834      5.180      7.513    11.6113   999.5845 0.0000e+00
      5.298      0.078     6.4867     84.936     41.531  30.411775     2.7816      7.018   272.2720 1.2728e-01     8.2375      5.196      7.536    11.6112   999.5846 0.0000e+00
      5.313      0.074     6.4791     84.952     41.516  30.400446     2.7295      7.017   272.3978 1.2403e-01     8.1409      5.209      7.553    11.6112   999.5846 0.0000e+00
      5.328      0.073     6.4690     85.002     41.515  30.399520     2.7083      7.016   272.4232 1.2379e-01     8.0985      5.224      7.576    11.6111   999.5847 0.0000e+00
      5.346      0.075     6.4613     85.082     41.517  30.400570     2.7080      7.016   272.5796 1.2383e-01     8.1175      5.243      7.604    11.6107   999.5849 0.0000e+00
      5.365      0.079     6.4609     85.153     41.533  30.413148     2.7604      7.017   272.7393 1.2379e-01     8.2061      5.261      7.630    11.6103   999.5850 0.0000e+00
      5.388      0.083     6.4621     85.171     41.548  30.424684     2.8734      7.017   272.7190 1.2378e-01     8.3842      5.281      7.660    11.6097   999.5851 0.0000e+00
      5.413      0.085     6.4656     85.140     41.532  30.413147     2.9394      7.015   272.6781 1.2383e-01     8.5008      5.310      7.701    11.6093   999.5853 0.0000e+00
      5.435      0.088     6.4728     85.059     41.514  30.400561     2.9426      7.014   272.7611 1.2383e-01     8.5016      5.332      7.733    11.6100   999.5853 0.0000e+00
      5.454      0.091     6.4805     84.923     41.512  30.399417     2.9372      7.013   272.8628 1.2378e-01     8.4594      5.347      7.755    11.6108   999.5853 0.0000e+00
      5.475      0.095     6.4801     84.756     41.513  30.399313     3.0037      7.012   272.9618 1.2374e-01     8.4174      5.368      7.786    11.6114   999.5854 0.0000e+00
      5.500      0.098     6.4782     84.574     41.513  30.399313     3.1484      7.012   273.0980 1.2373e-01     8.3540      5.394      7.822    11.6118   999.5854 0.0000e+00
      5.526      0.098     6.4728     84.396     41.513  30.399416     3.2307      7.012   273.1325 1.2377e-01     8.2826      5.418      7.858    11.6119   999.5855 0.0000e+00
      5.555      0.093     6.4608     84.259     41.514  30.400560     3.2354      7.011   273.0346 1.2377e-01     8.2417      5.446      7.900    11.6119   999.5857 0.0000e+00
      5.585      0.082     6.4482     84.169     41.531  30.413136     3.2401      7.011   272.9468 1.2377e-01     8.1225      5.480      7.948    11.6117   999.5858 0.0000e+00
      5.609      0.067     6.4341     84.116     41.547  30.424571     3.2529      7.010   273.0178 1.2379e-01     7.9225      5.506      7.985    11.6116   999.5860 0.0000e+00
      5.623      0.053     6.4189     84.121     41.529  30.411899     3.2602      7.010   273.2041 1.2377e-01     7.8227      5.518      8.003    11.6117   999.5860 0.0000e+00
      5.628      0.042     6.4084     84.179     41.495  30.386830     3.2592      7.010   273.3066 1.2377e-01     7.8345      5.520      8.006    11.6119   999.5860 0.0000e+00
      5.629      0.036     6.4026     84.250     41.480  30.375293     3.2924      7.010   273.2237 1.2379e-01     7.9661      5.520      8.006    11.6120   999.5860 0.0000e+00
      5.634      0.037     6.3971     84.314     41.513  30.399313     3.3764      7.012   273.0628 1.2379e-01     8.2020      5.524      8.012    11.6123   999.5860 0.0000e+00
      5.643      0.042     6.3974     84.370     41.547  30.423426     3.4335      7.016   272.9961 1.2379e-01     8.3261      5.533      8.025    11.6123   999.5860 0.0000e+00
      5.657      0.049     6.4037     84.411     41.532  30.413023     3.4277      7.018   273.1051 1.2377e-01     8.3198      5.546      8.044    11.6121   999.5861 0.0000e+00
      5.676      0.056     6.4095     84.436     41.515  30.400436     3.2972      7.018   273.2634 1.2373e-01     8.3550      5.566      8.072    11.6118   999.5862 0.0000e+00
      5.692      0.062     6.4143     84.472     41.512  30.398148     3.0699      7.016   273.3612 1.2375e-01     8.4561      5.583      8.099    11.6113   999.5864 0.0000e+00
      5.705      0.068     6.4187     84.553     41.495  30.385354     2.9512      7.012   273.4269 1.2377e-01     8.5262      5.594      8.114    11.6107   999.5865 0.0000e+00
      5.720      0.076     6.4226     84.677     41.477  30.372663     2.9452      7.005   273.4554 1.2376e-01     8.5482      5.609      8.135    11.6102   999.5866 0.0000e+00
      5.739      0.084     6.4232     84.818     41.475  30.371612     2.9458      7.000   273.5336 1.2375e-01     8.5580      5.628      8.163    11.6101   999.5867 0.0000e+00
      5.762      0.089     6.4249     84.946     41.476  30.372650     2.9761      7.000   273.5977 1.2371e-01     8.5456      5.648      8.192    11.6101   999.5868 0.0000e+00
      5.790      0.091     6.4311     85.033     41.493  30.385219     3.0336      7.005   273.6283 1.2366e-01     8.5305      5.675      8.231    11.6104   999.5869 0.0000e+00
      5.821      0.088     6.4413     85.053     41.508  30.396660     3.0603      7.008   273.6459 1.2368e-01     8.5395      5.710      8.282    11.6111   999.5870 0.0000e+00
      5.847      0.082     6.4530     85.034     41.490  30.384074     3.0563      7.009   273.6384 1.2372e-01     8.5232      5.738      8.323    11.6118   999.5871 0.0000e+00
      5.863      0.076     6.4628     85.000     41.457  30.359951     2.9943      7.009   273.7959 1.2372e-01     8.4641      5.751      8.341    11.6125   999.5870 0.0000e+00
      5.876      0.071     6.4711     84.952     41.456  30.358816     2.8818      7.008   274.0022 1.2377e-01     8.4481      5.761      8.355    11.6131   999.5870 0.0000e+00
      5.890      0.071     6.4710     84.956     41.471  30.370344     2.8234      7.006   274.0677 1.2380e-01     8.4927      5.776      8.377    11.6134   999.5871 0.0000e+00
      5.905      0.074     6.4683     85.056     41.474  30.372433     2.8256      7.003   274.0707 1.2374e-01     8.5121      5.789      8.397    11.6134   999.5871 0.0000e+00
      5.925      0.079     6.4677     85.239     41.489  30.384065     2.8831      7.003   274.0385 1.2372e-01     8.4862      5.807      8.422    11.6135   999.5872 0.0000e+00
      5.951      0.083     6.4605     85.454     41.489  30.384075     2.9891      7.003   274.0229 1.2373e-01     8.4738      5.835      8.463    11.6133   999.5873 0.0000e+00
      5.978      0.083     6.4595     85.632     41.473  30.372558     3.0498      7.003   274.0542 1.2376e-01     8.4941      5.864      8.506    11.6132   999.5875 0.0000e+00
      5.998      0.078     6.4682     85.738     41.472  30.371718     3.0530      7.004   274.0727 1.2380e-01     8.5016      5.883      8.532    11.6136   999.5875 0.0000e+00
      6.017      0.069     6.4827     85.763     41.475  30.373919     2.9937      7.005   274.0747 1.2382e-01     8.3353      5.898      8.555    11.6138   999.5876 0.0000e+00
      6.036      0.061     6.5022     85.713     41.510  30.399178     2.8787      7.007   274.0782 1.2381e-01     8.0236      5.922      8.589    11.6138   999.5877 0.0000e+00
      6.049      0.056     6.5158     85.636     41.542  30.423301     2.8167      7.007   274.1155 1.2375e-01     7.8464      5.936      8.608    11.6140   999.5877 0.0000e+00
      6.056      0.055     6.5242     85.553     41.527  30.411764     2.8421      7.008   274.1814 1.2373e-01     7.8320      5.937      8.611    11.6141   999.5878 0.0000e+00
      6.066      0.056     6.5269     85.466     41.493  30.386593     3.1504      7.009   274.1864 1.2377e-01     7.9148      5.945      8.623    11.6139   999.5878 0.0000e+00
      6.082      0.061     6.5203     85.421     41.474  30.372777     3.7014      7.009   274.1764 1.2377e-01     8.0287      5.964      8.650    11.6138   999.5879 0.0000e+00
      6.101      0.069     6.5141     85.443     41.473  30.371624     3.9984      7.007   274.2319 1.2373e-01     8.0613      5.984      8.679    11.6140   999.5880 0.0000e+00
      6.118      0.075     6.5092     85.519     41.475  30.372664     4.0191      7.004   274.2549 1.2369e-01     8.0471      5.998      8.700    11.6138   999.5881 0.0000e+00
      6.138      0.075     6.4996     85.624     41.492  30.385344     3.9684      7.004   274.2820 1.2375e-01     8.0533      6.016      8.725    11.6136   999.5882 0.0000e+00
      6.164      0.070     6.4961     85.701     41.510  30.398025     3.8885      7.005   274.3015 1.2382e-01     8.0707      6.045      8.768    11.6135   999.5883 0.0000e+00
      6.187      0.062     6.4986     85.732     41.511  30.399075     3.8509      7.005   274.2339 1.2382e-01     8.0604      6.072      8.808    11.6133   999.5885 0.0000e+00
      6.202      0.054     6.5040     85.734     41.509  30.398045     3.8433      7.006   274.2385 1.2379e-01     8.0272      6.083      8.823    11.6130   999.5885 0.0000e+00
      6.210      0.050     6.5149     85.721     41.492  30.385573     3.8311      7.007   274.3568 1.2370e-01     8.0307      6.090      8.833    11.6131   999.5886 0.0000e+00
      6.215      0.051     6.5209     85.715     41.478  30.375181     3.6767      7.007   274.4602 1.2367e-01     8.0038      6.095      8.841    11.6132   999.5886 0.0000e+00
      6.220      0.059     6.5220     85.710     41.511  30.399303     3.3819      7.006   274.4555 1.2372e-01     7.8986      6.097      8.842    11.6131   999.5886 0.0000e+00
      6.233      0.073     6.5227     85.687     41.544  30.423417     3.2140      7.005   274.3858 1.2374e-01     7.8396      6.108      8.859    11.6132   999.5887 0.0000e+00
      6.258      0.086     6.5203     85.648     41.530  30.412919     3.1815      7.004   274.3922 1.2371e-01     7.8155      6.134      8.896    11.6133   999.5888 0.0000e+00
      6.289      0.096     6.5203     85.601     41.512  30.399283     3.1537      7.004   274.4469 1.2370e-01     7.8045      6.167      8.944    11.6132   999.5889 0.0000e+00
      6.322      0.099     6.5209     85.551     41.494  30.385458     3.1294      7.005   274.4453 1.2373e-01     7.8375      6.200      8.993    11.6132   999.5891 0.0000e+00
      6.351      0.093     6.5186     85.515     41.477  30.372664     3.1218      7.005   274.3727 1.2373e-01     7.8532      6.230      9.036    11.6131   999.5893 0.0000e+00
      6.374      0.082     6.5156     85.497     41.476  30.371501     3.1138      7.005   274.2568 1.2376e-01     7.8308      6.253      9.069    11.6129   999.5894 0.0000e+00
      6.392      0.067     6.5120     85.492     41.477  30.371395     3.0240      7.005   274.1628 1.2381e-01     7.7639      6.270      9.093    11.6124   999.5895 0.0000e+00
      6.405      0.053     6.5077     85.531     41.477  30.371386     2.8687      7.005   274.0108 1.2383e-01     7.6665      6.282      9.112    11.6116   999.5897 0.0000e+00
      6.416      0.045     6.5049     85.612     41.477  30.371394     2.7875      7.005   273.7950 1.2376e-01     7.6364      6.293      9.128    11.6108   999.5898 0.0000e+00
      6.423      0.042     6.5046     85.696     41.477  30.371489     2.7879      7.006   273.7050 1.2369e-01     7.6621      6.300      9.138    11.6102   999.5899 0.0000e+00
      6.428      0.042     6.5025     85.768     41.479  30.372528     2.8908      7.006   273.6114 1.2373e-01     7.7148      6.301      9.139    11.6099   999.5899 0.0000e+00
      6.438      0.044     6.5051     85.777     41.494  30.383961     3.0866      7.005   273.4366 1.2376e-01     7.8153      6.309      9.152    11.6096   999.5900 0.0000e+00
      6.454      0.049     6.5142     85.689     41.493  30.382808     3.1876      7.005   273.3985 1.2373e-01     7.8615      6.330      9.182    11.6095   999.5901 0.0000e+00
      6.469      0.052     6.5189     85.557     41.461  30.358590     3.1846      7.005   273.4092 1.2373e-01     7.8467      6.345      9.202    11.6095   999.5902 0.0000e+00
      6.482      0.052     6.5267     85.422     41.442  30.344965     3.1799      7.005   273.3076 1.2376e-01     7.8334      6.355      9.217    11.6093   999.5902 0.0000e+00
      6.497      0.047     6.5297     85.294     41.442  30.344975     3.1741      7.006   273.2033 1.2378e-01     7.8641      6.371      9.241    11.6091   999.5904 0.0000e+00
      6.511      0.040     6.5195     85.206     41.461  30.358706     3.1575      7.006   273.1808 1.2376e-01     7.9566      6.388      9.264    11.6088   999.5905 0.0000e+00
      6.520      0.033     6.5090     85.196     41.495  30.384077     3.1438      7.006   273.1204 1.2377e-01     8.0335      6.395      9.276    11.6086   999.5905 0.0000e+00
      6.526      0.027     6.4987     85.215     41.514  30.397921     3.1388      7.006   272.9902 1.2383e-01     8.0725      6.400      9.283    11.6086   999.5905 0.0000e+00
      6.530      0.022     6.4886     85.202     41.516  30.399189     3.1744      7.007   272.8962 1.2388e-01     8.1335      6.405      9.289    11.6085   999.5906 0.0000e+00
      6.534      0.018     6.4792     85.186     41.516  30.399408     3.2619      7.007   272.8448 1.2390e-01     8.2469      6.407      9.293    11.6087   999.5905 0.0000e+00
      6.537      0.016     6.4805     85.186     41.518  30.400563     3.3214      7.008   272.7991 1.2383e-01     8.2966      6.411      9.298    11.6088   999.5906 0.0000e+00
      6.542      0.016     6.4852     85.178     41.535  30.413150     3.3229      7.009   272.7735 1.2373e-01     8.2751      6.415      9.304    11.6088   999.5906 0.0000e+00
      6.547      0.015     6.4816     85.153     41.550  30.424687     3.2709      7.009   272.7932 1.2372e-01     8.2499      6.420      9.311    11.6090   999.5906 0.0000e+00
      6.551      0.014     6.4800     85.111     41.534  30.413149     3.1778      7.009   272.7795 1.2372e-01     8.1559      6.425      9.318    11.6090   999.5906 0.0000e+00
      6.555      0.012     6.4814     85.067     41.517  30.400552     3.1244      7.010   272.6940 1.2373e-01     8.0887      6.428      9.324    11.6091   999.5906 0.0000e+00
      6.557      0.010     6.4804     85.032     41.516  30.399295     3.1204      7.010   272.6195 1.2381e-01     8.0926      6.431      9.327    11.6092   999.5906 0.0000e+00
      6.559      0.007     6.4789     84.995     41.514  30.397942     3.0596      7.010   272.5668 1.2379e-01     8.0071      6.433      9.330    11.6092   999.5907 0.0000e+00
      6.561      0.005     6.4751     84.951     41.495  30.384202     2.9360      7.012   272.5729 1.2373e-01     7.8737      6.434      9.332    11.6093   999.5906 0.0000e+00
      6.562      0.003     6.4711     84.911     41.463  30.360067     2.8743      7.013   272.6077 1.2378e-01     7.8567      6.435      9.333    11.6092   999.5907 0.0000e+00
      6.562      0.002     6.4695     84.916     41.463  30.359954     2.8857      7.014   272.5578 1.2378e-01     7.8666      6.435      9.334    11.6091   999.5907 0.0000e+00
      6.562      0.002     6.4660     84.968     41.495  30.382828     2.9517      7.016   272.3996 1.2375e-01     7.6986      6.435      9.333    11.6088   999.5907 0.0000e+00
      6.562      0.001     6.4639     85.049     41.496  30.382820     3.0573      7.016   272.2433 1.2380e-01     7.4638      6.435      9.334    11.6085   999.5907 0.0000e+00
      6.563      0.001     6.4582     85.167     41.465  30.359850     3.1132      7.016   272.3024 1.2376e-01     7.3864      6.436      9.335    11.6084   999.5907 0.0000e+00
      6.563      0.002     6.4589     85.296     41.464  30.358923     3.1251      7.016   272.3402 1.2365e-01     7.4192      6.436      9.335    11.6083   999.5907 0.0000e+00
      6.564      0.002     6.4645     85.409     41.482  30.371615     3.1226      7.017   272.1847 1.2365e-01     7.4342      6.437      9.336    11.6077   999.5908 0.0000e+00
      6.564      0.002     6.4688     85.481     41.502  30.386394     3.0398      7.017   272.1422 1.2376e-01     7.4363      6.437      9.336    11.6066   999.5909 0.0000e+00
      6.565      0.002     6.4800     85.510     41.535  30.410707     2.8967      7.017   272.1716 1.2387e-01     7.4782      6.438      9.337    11.6061   999.5910 0.0000e+00
      6.565      0.002     6.4896     85.531     41.536  30.411766     2.8312      7.017   272.1093 1.2395e-01     7.5473      6.438      9.338    11.6063   999.5910 0.0000e+00
      6.566      0.001     6.4993     85.549     41.520  30.399190     2.8371      7.018   271.9918 1.2389e-01     7.6162      6.439      9.339    11.6063   999.5910 0.0000e+00
      6.566      0.001     6.5054     85.547     41.502  30.385555     2.8471      7.019   271.8685 1.2375e-01     7.6883      6.439      9.339    11.6063   999.5910 0.0000e+00
      6.566      0.001     6.5055     85.529     41.487  30.373819     2.8642      7.020   271.8225 1.2370e-01     7.7634      6.439      9.339    11.6066   999.5910 0.0000e+00
      6.566      0.001     6.5075     85.512     41.502  30.384202     2.8712      7.021   271.8663 1.2373e-01     7.8029      6.439      9.339    11.6065   999.5910 0.0000e+00
      6.566      0.001     6.5098     85.499     41.502  30.384192     2.8713      7.022   272.0545 1.2377e-01     7.8390      6.439      9.339    11.6054   999.5911 0.0000e+00
      6.566      0.001     6.5094     85.494     41.487  30.373695     2.8742      7.022   272.2053 1.2381e-01     7.8718      6.439      9.339    11.6046   999.5912 0.0000e+00
      6.567 -9.990e-29     6.5075 -9.990e-29 -9.990e-29 -9.990e-29 -9.990e-29 -9.990e-29 -9.990e-29 1.2380e-01 -9.990e-29      6.440      9.340    11.6039   999.5912 0.0000e+00
      6.567 -9.990e-29     6.5064 -9.990e-29 -9.990e-29 -9.990e-29 -9.990e-29 -9.990e-29 -9.990e-29 1.2379e-01 -9.990e-29      6.440      9.340    11.6031   999.5913 0.0000e+00
      6.567 -9.990e-29     6.5054 -9.990e-29 -9.990e-29 -9.990e-29 -9.990e-29 -9.990e-29 -9.990e-29 1.2376e-01 -9.990e-29      6.440      9.340    11.6032   999.5913 0.0000e+00
      6.567 -9.990e-29     6.5046 -9.990e-29 -9.990e-29 -9.990e-29 -9.990e-29 -9.990e-29 -9.990e-29 1.2373e-01 -9.990e-29      6.440      9.340    11.6035   999.5913 0.0000e+00
