* Sea-Bird SBE19plus  Data File:
* FileName = C:\DATA\110819_fcr50_0001.hex
* Software version 2.8.0.119 SB_Terminal.dll
* Temperature SN = 7809
* Conductivity SN = 7809
* System UpLoad Time = Nov 11 2019 10:23:09
* <ApplicationData>
* <Seaterm232>
* <SoftwareVersion>2.8.0.119</SoftwareVersion>
* <BuildDate>07-Nov-2018</BuildDate>
* </Seaterm232>
* </ApplicationData>
* cast   1 08 Nov 2019 12:45:17 samples 1 to 1219, avg = 1, stop = mag switch
# nquan = 16
# nvalues = 986                         
# units = specified
# name 0 = depFM: Depth [fresh water, m]
# name 1 = dz/dtM: Descent Rate [m/s]
# name 2 = sbeox0ML/L: Oxygen, SBE 43 [ml/l]
# name 3 = sbeox0PS: Oxygen, SBE 43 [% saturation]
# name 4 = specc: Specific Conductance [uS/cm]
# name 5 = c0uS/cm: Conductivity [uS/cm]
# name 6 = flECO-AFL: Fluorescence, WET Labs ECO-AFL/FL [mg/m^3]
# name 7 = ph: pH
# name 8 = orp: Oxidation Reduction Potential [mV]
# name 9 = par/sat/log: PAR/Logarithmic, Satlantic
# name 10 = turbWETntu0: Turbidity, WET Labs ECO [NTU]
# name 11 = prdM: Pressure, Strain Gauge [db]
# name 12 = prdE: Pressure, Strain Gauge [psi]
# name 13 = tv290C: Temperature [ITS-90, deg C]
# name 14 = density00: Density [density, kg/m^3]
# name 15 = flag:  0.000e+00
# span 0 =     -0.541,      9.627       
# span 1 =     -0.239,      0.453       
# span 2 =     5.3230,     8.8079       
# span 3 =     69.455,    104.705       
# span 4 =      2.906,     50.526       
# span 5 =   1.740296,  31.899679       
# span 6 =    -0.2103,     6.0093       
# span 7 =     -2.389,      8.279       
# span 8 =  -844.1010,   731.2611       
# span 9 = 1.2360e-01, 1.3419e+03       
# span 10 =    -0.5752,    53.9108      
# span 11 =     -0.533,      9.441      
# span 12 =     -0.772,     13.693      
# span 13 =     4.8152,    11.6830      
# span 14 =   999.5542,   999.9829      
# span 15 = 0.0000e+00, 0.0000e+00      
# interval = seconds: 0.25
# start_time = Nov 08 2019 12:45:17 [Instrument's time stamp, header]
# bad_flag = -9.990e-29
# <Sensors count="9" >
#   <sensor Channel="1" >
#     <!-- Count, Temperature -->
#     <TemperatureSensor SensorID="58" >
#       <SerialNumber>7809</SerialNumber>
#       <CalibrationDate>24-Mar-19</CalibrationDate>
#       <A0>1.21792325e-003</A0>
#       <A1>2.81669265e-004</A1>
#       <A2>-1.60333336e-006</A2>
#       <A3>1.98414625e-007</A3>
#       <Slope>1.00000000</Slope>
#       <Offset>0.0000</Offset>
#     </TemperatureSensor>
#   </sensor>
#   <sensor Channel="2" >
#     <!-- Frequency 0, Conductivity -->
#     <ConductivitySensor SensorID="3" >
#       <SerialNumber>7809</SerialNumber>
#       <CalibrationDate>24-Mar-19</CalibrationDate>
#       <UseG_J>1</UseG_J>
#       <!-- Cell const and series R are applicable only for wide range sensors. -->
#       <SeriesR>0.0000</SeriesR>
#       <CellConst>2000.0000</CellConst>
#       <ConductivityType>0</ConductivityType>
#       <Coefficients equation="0" >
#         <A>0.00000000e+000</A>
#         <B>0.00000000e+000</B>
#         <C>0.00000000e+000</C>
#         <D>0.00000000e+000</D>
#         <M>0.0</M>
#         <CPcor>-9.57000000e-008</CPcor>
#       </Coefficients>
#       <Coefficients equation="1" >
#         <G>-1.00589325e+000</G>
#         <H>1.26816302e-001</H>
#         <I>-1.51560448e-004</I>
#         <J>2.67137274e-005</J>
#         <CPcor>-9.57000000e-008</CPcor>
#         <CTcor>3.2500e-006</CTcor>
#         <!-- WBOTC not applicable unless ConductivityType = 1. -->
#         <WBOTC>0.00000000e+000</WBOTC>
#       </Coefficients>
#       <Slope>1.00000000</Slope>
#       <Offset>0.00000</Offset>
#     </ConductivitySensor>
#   </sensor>
#   <sensor Channel="3" >
#     <!-- Count, Pressure, Strain Gauge -->
#     <PressureSensor SensorID="46" >
#       <SerialNumber>7809</SerialNumber>
#       <CalibrationDate>11-Mar-19</CalibrationDate>
#       <PA0>4.56561833e-002</PA0>
#       <PA1>4.85095118e-004</PA1>
#       <PA2>-2.88327090e-012</PA2>
#       <PTEMPA0>-5.48784562e+001</PTEMPA0>
#       <PTEMPA1>5.53756816e+001</PTEMPA1>
#       <PTEMPA2>-5.86727098e-001</PTEMPA2>
#       <PTCA0>5.25246745e+005</PTCA0>
#       <PTCA1>1.22304214e+001</PTCA1>
#       <PTCA2>-3.56745036e-001</PTCA2>
#       <PTCB0>2.51668750e+001</PTCB0>
#       <PTCB1>3.75000000e-004</PTCB1>
#       <PTCB2>0.00000000e+000</PTCB2>
#       <Offset>0.000000</Offset>
#     </PressureSensor>
#   </sensor>
#   <sensor Channel="4" >
#     <!-- A/D voltage 0, Oxygen, SBE 43 -->
#     <OxygenSensor SensorID="38" >
#       <SerialNumber>0434</SerialNumber>
#       <CalibrationDate>13-Apr-19</CalibrationDate>
#       <Use2007Equation>1</Use2007Equation>
#       <CalibrationCoefficients equation="0" >
#         <!-- Coefficients for Owens-Millard equation. -->
#         <Boc>0.0000</Boc>
#         <Soc>0.0000e+000</Soc>
#         <offset>0.0000</offset>
#         <Pcor>0.00e+000</Pcor>
#         <Tcor>0.0000</Tcor>
#         <Tau>0.0</Tau>
#       </CalibrationCoefficients>
#       <CalibrationCoefficients equation="1" >
#         <!-- Coefficients for Sea-Bird equation - SBE calibration in 2007 and later. -->
#         <Soc>4.2007e-001</Soc>
#         <offset>-0.6109</offset>
#         <A>-4.3656e-003</A>
#         <B> 1.7017e-004</B>
#         <C>-2.5341e-006</C>
#         <D0> 2.5826e+000</D0>
#         <D1> 1.92634e-004</D1>
#         <D2>-4.64803e-002</D2>
#         <E> 3.6000e-002</E>
#         <Tau20> 1.1800</Tau20>
#         <H1>-3.3000e-002</H1>
#         <H2> 5.0000e+003</H2>
#         <H3> 1.4500e+003</H3>
#       </CalibrationCoefficients>
#     </OxygenSensor>
#   </sensor>
#   <sensor Channel="5" >
#     <!-- A/D voltage 1, PAR/Logarithmic, Satlantic -->
#     <PARLog_SatlanticSensor SensorID="76" >
#       <SerialNumber>1122</SerialNumber>
#       <CalibrationDate>08-May-2019</CalibrationDate>
#       <a0>9.7456e-001</a0>
#       <a1>8.1640e-001</a1>
#       <Im>1.3589e+000</Im>
#       <Multiplier>1.0000e+000</Multiplier>
#     </PARLog_SatlanticSensor>
#   </sensor>
#   <sensor Channel="6" >
#     <!-- A/D voltage 2, pH -->
#     <pH_Sensor SensorID="43" >
#       <SerialNumber>0363</SerialNumber>
#       <CalibrationDate>15-Apr-19</CalibrationDate>
#       <Slope>4.5952</Slope>
#       <Offset>2.5370</Offset>
#     </pH_Sensor>
#   </sensor>
#   <sensor Channel="7" >
#     <!-- A/D voltage 3, Oxidation Reduction Potential -->
#     <OxidationReductionPotentialSensor SensorID="41" >
#       <SerialNumber>0363</SerialNumber>
#       <CalibrationDate>15-Apr-19</CalibrationDate>
#       <B>2.499480</B>
#       <M>-0.496195</M>
#       <Offset>0.0</Offset>
#     </OxidationReductionPotentialSensor>
#   </sensor>
#   <sensor Channel="8" >
#     <!-- A/D voltage 4, Fluorometer, WET Labs ECO-AFL/FL -->
#     <FluoroWetlabECO_AFL_FL_Sensor SensorID="20" >
#       <SerialNumber>FLNTURT-2496</SerialNumber>
#       <CalibrationDate>08-May-2019</CalibrationDate>
#       <ScaleFactor>5.00000000e+001</ScaleFactor>
#       <!-- Dark output -->
#       <Vblank>0.0550</Vblank>
#     </FluoroWetlabECO_AFL_FL_Sensor>
#   </sensor>
#   <sensor Channel="9" >
#     <!-- A/D voltage 5, Turbidity Meter, WET Labs, ECO-NTU -->
#     <TurbidityMeter SensorID="67" >
#       <SerialNumber>FLNTURT-2496</SerialNumber>
#       <CalibrationDate>08-May-2019</CalibrationDate>
#       <ScaleFactor>189.000000</ScaleFactor>
#       <!-- Dark output -->
#       <DarkVoltage>0.071000</DarkVoltage>
#     </TurbidityMeter>
#   </sensor>
# </Sensors>
# datcnv_date = Nov 11 2019 10:29:33, 7.26.7.129 [datcnv_vars = 15]
# datcnv_in = C:\DATA\110819_fcr50.hex C:\DATA\SBE19plusV2_7809.xmlcon
# datcnv_skipover = 0
# datcnv_ox_hysteresis_correction = yes
# datcnv_ox_tau_correction = yes
# filter_date = Nov 11 2019 10:29:59, 7.26.7.129
# filter_in = C:\DATA\110819_fcr50.cnv
# filter_low_pass_tc_A = 0.030
# filter_low_pass_tc_B = 0.150
# filter_low_pass_A_vars = sbeox0ML/L prdM prdE tv290C density00
# filter_low_pass_B_vars = depFM dz/dtM sbeox0PS specc c0uS/cm flECO-AFL ph orp par/sat/log turbWETntu0
# alignctd_date = Nov 11 2019 10:30:18, 7.26.7.129
# alignctd_in = C:\DATA\110819_fcr50.cnv
# alignctd_adv = dz/dtM 1.000, sbeox0PS 1.000, specc 1.000, c0uS/cm 1.000, flECO-AFL 1.000, ph 1.000, orp 1.000, turbWETntu0 1.000                                                                                                   
# file_type = ascii
*END*
     -0.541 4.3140e-20     8.7864     98.025      2.994   1.791167     0.0184     -2.389    81.2467 1.3419e+03    -0.5230     -0.530     -0.769     4.8797   999.9680 0.0000e+00
     -0.540 3.9339e-21     8.7849     98.009      3.031   1.814105     0.0253     -0.778  -148.5924 1.0689e+03    -0.4642     -0.530     -0.769     4.8895   999.9679 0.0000e+00
     -0.540 4.9042e-22     8.7819     97.981      3.051   1.826526     0.0237      1.467  -322.2500 4.8091e+02    -0.4504     -0.530     -0.769     4.8998   999.9678 0.0000e+00
     -0.541 1.5054e-21     8.7820     97.956      3.031   1.814614    -0.0270      3.416  -552.9251 1.3540e+02    -0.4548     -0.530     -0.769     4.9074   999.9676 0.0000e+00
     -0.541 1.6206e-20     8.7789     97.961      3.001   1.796804    -0.1188      4.699  -717.3360 9.6271e+01    -0.3860     -0.530     -0.769     4.9141   999.9675 0.0000e+00
     -0.541 1.7823e-19     8.7767     97.967      3.008   1.801296    -0.1675      5.414  -796.6120 9.0627e+01    -0.3070     -0.530     -0.769     4.9196   999.9675 0.0000e+00
     -0.541 1.9606e-18     8.7728     97.971      3.015   1.805562    -0.1563      5.746  -804.0302 8.9157e+01    -0.2863     -0.530     -0.769     4.9261   999.9674 0.0000e+00
     -0.541 2.1566e-17     8.7656     97.987      2.980   1.785012    -0.1486      5.878  -794.3806 8.9069e+01    -0.2995     -0.530     -0.769     4.9342   999.9673 0.0000e+00
     -0.541 2.3723e-16     8.7682     98.007      2.910   1.742928    -0.1602      5.975  -792.3933 9.0217e+01    -0.3026     -0.530     -0.769     4.9408   999.9671 0.0000e+00
     -0.541 2.6095e-15     8.7670     98.012      2.906   1.740296    -0.1671      6.025  -844.1010 9.1773e+01    -0.2907     -0.531     -0.770     4.9434   999.9671 0.0000e+00
     -0.541 2.8704e-14     8.7663     98.010      3.035   1.816552    -0.1625      5.395  -686.9496 9.4429e+01    -0.2875     -0.530     -0.769     4.9453   999.9671 0.0000e+00
     -0.541 3.1575e-13     8.7674     98.014      3.290   1.967900    -0.1572      4.062  -342.2226 1.0007e+02    -0.3286     -0.530     -0.768     4.9492   999.9670 0.0000e+00
     -0.541 3.4732e-12     8.7698     98.011      3.640   2.176160    -0.1545      3.399  -288.3941 1.0955e+02    -0.4278     -0.530     -0.769     4.9498   999.9670 0.0000e+00
     -0.540 3.8206e-11     8.7721     98.000      3.860   2.306840    -0.1562      2.832  -208.4508 1.1875e+02    -0.5034     -0.529     -0.768     4.9409   999.9671 0.0000e+00
     -0.540 4.2026e-10     8.7737     97.989      3.923   2.343956    -0.1687      0.914   144.6956 1.2308e+02    -0.5216     -0.529     -0.768     4.9257   999.9674 0.0000e+00
     -0.540 4.6229e-09     8.7804     98.009      3.969   2.371447    -0.1846     -1.102   329.0164 1.2453e+02    -0.5162     -0.529     -0.769     4.9086   999.9677 0.0000e+00
     -0.540 5.0852e-08     8.7819     98.047      3.993   2.385766    -0.2002     -2.014   287.2392 1.2687e+02    -0.5037     -0.530     -0.768     4.8929   999.9681 0.0000e+00
     -0.540 5.5937e-07     8.7850     98.067      4.002   2.390348    -0.2103     -2.130   220.2506 1.3063e+02    -0.5357     -0.529     -0.769     4.8810   999.9683 0.0000e+00
     -0.540      0.000     8.7842     98.067      4.064   2.426844    -0.2035     -1.857   201.0092 1.3251e+02    -0.5752     -0.530     -0.768     4.8697   999.9685 0.0000e+00
     -0.540      0.000     8.7863     98.051      4.205   2.510191    -0.1783     -1.435   141.6660 1.2996e+02    -0.5557     -0.530     -0.769     4.8690   999.9684 0.0000e+00
     -0.540      0.001     8.7919     98.045      4.524   2.701036    -0.1486     -0.611   107.3345 1.2057e+02    -0.5279     -0.530     -0.768     4.8728   999.9685 0.0000e+00
     -0.540      0.003     8.7914     98.059      6.432   3.847176    -0.1386      0.594   421.6538 1.0857e+02    -0.5010     -0.529     -0.769     4.8748   999.9683 0.0000e+00
     -0.540      0.020     8.7978     98.039     19.629  11.805325    -0.1443      2.076   731.2611 9.9148e+01    -0.4930     -0.528     -0.767     4.8543   999.9689 0.0000e+00
     -0.540      0.076     8.7952     97.881     41.229  25.170320    -0.1392      4.108   574.6530 9.3098e+01    -0.4980     -0.530     -0.770     4.8478   999.9685 0.0000e+00
     -0.539      0.176     8.7987     97.581     50.526  31.820113    -0.0169      5.955   370.3913 9.9906e+01     0.1601     -0.526     -0.764     4.8312   999.9696 0.0000e+00
     -0.532      0.291     8.7953     97.272     48.443  31.899679     0.2071      7.014   343.7861 1.1353e+02     1.4668     -0.533     -0.772     4.8545   999.9679 0.0000e+00
     -0.472      0.387     8.8079     97.080     46.341  31.655043     0.3328      7.598   336.5165 1.1977e+02     2.2250     -0.515     -0.746     4.8152   999.9716 0.0000e+00
     -0.305      0.444     8.7389     97.065     45.110  31.528750     0.3934      7.922   332.3972 1.1227e+02     2.6750     -0.326     -0.473     5.0556   999.9829 0.0000e+00
     -0.081      0.453     8.4171     97.251     44.486  31.515666     0.9055      8.100   329.5140 9.6492e+01     6.8430     -0.051     -0.075     6.3828   999.9480 0.0000e+00
      0.094      0.409     8.0311     97.648     44.179  31.560724     1.8429      8.195   327.4687 9.3322e+01    14.4723      0.127      0.185     8.1272   999.8615 0.0000e+00
      0.180      0.313     7.7820     98.238     43.870  31.502678     2.3552      8.246   325.9079 9.9704e+01    18.6258      0.196      0.285     9.3446   999.7756 0.0000e+00
      0.209      0.188     7.6501     98.963     43.498  31.321680     2.3918      8.272   324.4945 1.0375e+02    19.0143      0.209      0.303    10.0571   999.7157 0.0000e+00
      0.212      0.078     7.5893     99.723     43.291  31.212675     2.3378      8.279   323.4579 1.0928e+02    19.2683      0.215      0.311    10.4750   999.6773 0.0000e+00
      0.197      0.012     7.5724    100.412     43.241  31.200088     2.2478      8.274   322.7528 1.2453e+02    19.6975      0.198      0.287    10.7514   999.6507 0.0000e+00
      0.173     -0.014     7.5864    100.964     43.083  31.106053     2.2137      8.264   321.9918 1.4817e+02    20.0095      0.163      0.236    10.9343   999.6323 0.0000e+00
      0.163     -0.020     7.6308    101.348     42.863  30.964133     2.2204      8.254   320.8816 1.6846e+02    20.8119      0.151      0.218    11.0211   999.6233 0.0000e+00
      0.170     -0.022     7.6871    101.600     42.734  30.880228     2.2248      8.245   319.6539 1.9042e+02    29.4639      0.167      0.242    11.0494   999.6204 0.0000e+00
      0.179     -0.024     7.7377    102.055     42.698  30.853064     2.2416      8.236   318.8496 2.1846e+02    45.3445      0.181      0.262    11.0763   999.6179 0.0000e+00
      0.179     -0.027     7.7761    103.009     42.750  30.889518     2.2583      8.226   318.4699 2.1387e+02    53.9108      0.180      0.260    11.0959   999.6157 0.0000e+00
      0.165     -0.033     7.8038    104.102     42.817  30.940250     2.2714      8.213   318.1605 1.6468e+02    53.6309      0.166      0.241    11.1220   999.6129 0.0000e+00
      0.143     -0.038     7.8110    104.705     42.832  30.958810     2.3300      8.200   317.6891 1.2335e+02    41.9283      0.139      0.201    11.1333   999.6116 0.0000e+00
      0.123     -0.035     7.8298    104.485     42.847  30.987020     2.4375      8.187   317.0727 1.0543e+02    20.3343      0.117      0.169    11.1250   999.6122 0.0000e+00
      0.113     -0.022     7.9195    103.320     42.866  31.027521     2.5048      8.177   316.4723 9.5028e+01     8.5739      0.108      0.156    11.1246   999.6123 0.0000e+00
      0.113     -0.001     8.0252    101.235     42.878  31.067795     2.5111      8.169   315.7643 9.1562e+01     7.5220      0.109      0.157    11.1259   999.6122 0.0000e+00
      0.118      0.019     8.0760     98.394     42.876  31.093251     2.5044      8.161   314.7074 9.0526e+01     7.4194      0.115      0.167    11.1323   999.6116 0.0000e+00
      0.126      0.031     8.0586     95.011     42.834  31.081512     2.4934      8.152   313.5018 8.7657e+01     7.5957      0.121      0.175    11.1532   999.6096 0.0000e+00
      0.140      0.032     7.9633     91.446     42.777  31.052791     2.4742      8.140   312.3723 8.5278e+01     8.0146      0.133      0.195    11.1856   999.6062 0.0000e+00
      0.158      0.023     7.7890     88.184     42.691  30.999829     2.4623      8.126   311.4620 8.4813e+01     8.2892      0.159      0.231    11.2279   999.6019 0.0000e+00
      0.170      0.011     7.5613     85.525     42.605  30.948829     2.4628      8.111   310.9272 8.4933e+01     8.3268      0.172      0.248    11.2612   999.5985 0.0000e+00
      0.169      0.001     7.2897     83.474     42.582  30.943826     2.4620      8.092   310.2934 8.5864e+01     8.0766      0.169      0.245    11.2796   999.5966 0.0000e+00
      0.157     -0.009     6.9975     81.943     42.567  30.939350     2.4619      8.074   309.2193 8.9617e+01     7.6242      0.156      0.227    11.2960   999.5948 0.0000e+00
      0.142     -0.017     6.7375     80.841     42.498  30.894717     2.4624      8.057   308.2651 9.3857e+01     7.4112      0.132      0.191    11.3025   999.5939 0.0000e+00
      0.138     -0.018     6.5341     80.033     42.426  30.848372     2.4581      8.040   307.7043 9.6113e+01     7.4021      0.130      0.189    11.3172   999.5924 0.0000e+00
      0.142     -0.015     6.3772     79.428     42.388  30.823208     2.4882      8.024   307.0851 9.9132e+01     7.4811      0.145      0.210    11.3369   999.5903 0.0000e+00
      0.140     -0.013     6.2604     78.985     42.336  30.780825     2.5496      8.011   306.3712 1.1883e+02     7.6780      0.138      0.200    11.3383   999.5902 0.0000e+00
      0.135     -0.013     6.1808     78.708     42.264  30.716663     2.5851      8.000   306.0422 2.2953e+02     7.8174      0.128      0.187    11.3458   999.5893 0.0000e+00
      0.134     -0.016     6.1191     78.572     42.232  30.681978     2.5874      7.988   306.0321 4.2879e+02     7.8232      0.132      0.191    11.3547   999.5883 0.0000e+00
      0.130     -0.018     6.0738     78.487     42.232  30.678721     2.5076      7.976   305.8195 4.7989e+02     7.7802      0.132      0.193    11.3577   999.5880 0.0000e+00
      0.120     -0.017     6.0399     78.422     42.217  30.677279     2.3580      7.964   305.4496 3.9655e+02     7.7897      0.117      0.169    11.3544   999.5884 0.0000e+00
      0.112     -0.015     6.0208     78.418     42.177  30.664561     2.2693      7.953   305.3455 4.2142e+02     7.8384      0.105      0.153    11.3354   999.5902 0.0000e+00
      0.111     -0.013     6.0170     78.453     42.138  30.651873     2.2671      7.941   305.3355 4.2221e+02     7.8454      0.110      0.160    11.3193   999.5919 0.0000e+00
      0.110     -0.010     6.0120     78.469     42.120  30.650803     2.3577      7.930   305.2420 3.5192e+02     7.7439      0.109      0.158    11.3139   999.5925 0.0000e+00
      0.109     -0.006     6.0026     78.481     42.108  30.651633     2.5062      7.922   305.2482 3.2823e+02     7.5288      0.106      0.154    11.3263   999.5912 0.0000e+00
      0.108     -0.006     5.9996     78.491     42.116  30.661912     2.5807      7.914   305.0665 3.1992e+02     7.3747      0.107      0.155    11.3515   999.5885 0.0000e+00
      0.107     -0.008     6.0035     78.487     42.100  30.648182     2.5819      7.905   304.5934 3.9643e+02     7.3543      0.105      0.153    11.3699   999.5865 0.0000e+00
      0.106     -0.010     6.0001     78.491     42.060  30.612541     2.5812      7.897   304.1737 5.1754e+02     7.3481      0.104      0.150    11.3835   999.5851 0.0000e+00
      0.103     -0.015     5.9998     78.486     42.070  30.611702     2.5467      7.888   303.6919 4.5803e+02     7.2998      0.102      0.147    11.3967   999.5837 0.0000e+00
      0.098     -0.024     6.0008     78.450     42.114  30.638028     2.4599      7.879   303.1564 2.4842e+02     7.2296      0.097      0.140    11.4031   999.5830 0.0000e+00
      0.093     -0.031     5.9992     78.421     42.164  30.677016     2.3979      7.870   302.8614 1.2525e+02     7.2198      0.091      0.131    11.3979   999.5835 0.0000e+00
      0.088     -0.028     6.0018     78.407     42.192  30.702366     2.3869      7.857   302.7055 1.0802e+02     7.2799      0.090      0.131    11.3891   999.5844 0.0000e+00
      0.074     -0.015     6.0044     78.324     42.174  30.690724     2.4051      7.840   302.6488 1.0872e+02     7.4327      0.079      0.114    11.3780   999.5856 0.0000e+00
      0.052      0.003     6.0013     78.149     42.136  30.663160     2.4273      7.824   302.6062 1.1091e+02     7.6902      0.042      0.062    11.3680   999.5864 0.0000e+00
      0.047      0.023     5.9965     77.936     42.072  30.622923     2.4290      7.809   302.3620 1.0821e+02     7.8377      0.032      0.047    11.3735   999.5859 0.0000e+00
      0.069      0.041     5.9987     77.724     42.005  30.584964     2.4347      7.799   302.1060 1.2509e+02     7.8392      0.066      0.096    11.3855   999.5848 0.0000e+00
      0.100      0.056     5.9926     77.499     41.993  30.584952     2.4530      7.792   301.8327 1.4343e+02     7.7415      0.101      0.147    11.3847   999.5850 0.0000e+00
      0.125      0.062     5.9777     77.255     42.037  30.622783     2.4599      7.787   301.4665 1.1868e+02     7.5406      0.126      0.182    11.3783   999.5857 0.0000e+00
      0.140      0.054     5.9588     77.012     42.087  30.661647     2.4485      7.782   301.2057 8.9884e+01     7.4089      0.139      0.201    11.3885   999.5847 0.0000e+00
      0.150      0.039     5.9411     76.779     42.102  30.674118     2.4446      7.776   301.0030 8.3944e+01     7.3616      0.148      0.214    11.4051   999.5830 0.0000e+00
      0.156      0.025     5.9234     76.591     42.064  30.646656     2.4571      7.771   300.8230 8.4789e+01     7.2974      0.155      0.225    11.4153   999.5819 0.0000e+00
      0.157      0.015     5.9019     76.455     41.989  30.583430     2.4606      7.766   300.6635 9.4344e+01     7.2219      0.154      0.224    11.4214   999.5813 0.0000e+00
      0.156      0.010     5.8844     76.343     41.955  30.544205     2.4518      7.761   300.4512 1.1213e+02     7.1702      0.151      0.219    11.4241   999.5810 0.0000e+00
      0.157      0.007     5.8641     76.234     41.975  30.553110     2.4464      7.757   300.2349 1.2891e+02     7.1639      0.153      0.222    11.4256   999.5808 0.0000e+00
      0.161      0.006     5.8492     76.122     41.980  30.564188     2.4217      7.755   299.8559 1.4460e+02     7.2111      0.158      0.230    11.4299   999.5804 0.0000e+00
      0.163      0.006     5.8417     76.004     41.945  30.551246     2.3696      7.752   299.3094 1.4975e+02     7.3147      0.160      0.232    11.4207   999.5813 0.0000e+00
      0.164      0.005     5.8365     75.869     41.892  30.523561     2.3445      7.748   298.9621 1.2880e+02     7.4008      0.161      0.233    11.3927   999.5844 0.0000e+00
      0.165      0.002     5.8305     75.740     41.828  30.483285     2.3435      7.744   298.7543 1.0526e+02     7.4004      0.162      0.235    11.3840   999.5853 0.0000e+00
      0.165      0.000     5.8186     75.641     41.773  30.445003     2.3324      7.741   298.5179 1.0167e+02     7.3752      0.162      0.235    11.3984   999.5838 0.0000e+00
      0.164     -0.001     5.8094     75.574     41.772  30.441438     2.3403      7.737   298.4266 1.0380e+02     7.3902      0.162      0.235    11.4164   999.5818 0.0000e+00
      0.163     -0.001     5.7951     75.494     41.775  30.440169     2.3786      7.732   298.2528 9.5679e+01     7.4190      0.160      0.233    11.4303   999.5803 0.0000e+00
      0.162     -0.003     5.7840     75.338     41.771  30.429661     2.3962      7.727   297.6212 9.0052e+01     7.4278      0.159      0.231    11.4385   999.5794 0.0000e+00
      0.161     -0.009     5.7763     75.167     41.805  30.441294     2.3805      7.722   296.8982 9.3743e+01     7.3979      0.157      0.228    11.4400   999.5791 0.0000e+00
      0.163     -0.020     5.7717     75.010     41.840  30.453901     2.3619      7.717   296.5662 9.3721e+01     7.3204      0.160      0.233    11.4342   999.5798 0.0000e+00
      0.164     -0.032     5.7711     74.821     41.865  30.455161     2.3441      7.711   296.5318 8.8856e+01     7.2440      0.164      0.238    11.4333   999.5800 0.0000e+00
      0.157     -0.041     5.7550     74.584     41.895  30.456506     2.3303      7.704   296.4832 8.6035e+01     7.1952      0.158      0.230    11.4256   999.5808 0.0000e+00
      0.137     -0.046     5.7448     74.319     41.931  30.470143     2.3163      7.697   296.4092 8.4382e+01     7.1569      0.140      0.202    11.4019   999.5832 0.0000e+00
      0.110     -0.046     5.7363     74.035     41.972  30.493122     2.2793      7.690   296.7549 8.4965e+01     7.0756      0.104      0.150    11.3927   999.5841 0.0000e+00
      0.092     -0.041     5.7245     73.741     41.959  30.480515     2.2298      7.684   297.3934 8.9220e+01     6.9659      0.083      0.120    11.3745   999.5859 0.0000e+00
      0.089     -0.030     5.7101     73.456     41.903  30.444625     2.2108      7.678   297.5901 9.1187e+01     6.9450      0.087      0.126    11.3390   999.5897 0.0000e+00
      0.090     -0.017     5.6909     73.195     41.884  30.439913     2.2153      7.672   297.3268 9.1267e+01     6.9539      0.089      0.129    11.3306   999.5906 0.0000e+00
      0.089     -0.005     5.6701     72.970     41.852  30.423544     2.2240      7.665   297.0488 9.2138e+01     7.0406      0.087      0.127    11.3220   999.5914 0.0000e+00
      0.089      0.000     5.6477     72.747     41.779  30.373638     2.2462      7.660   296.9830 9.6369e+01     7.2721      0.087      0.127    11.3133   999.5924 0.0000e+00
      0.089      0.001     5.6251     72.499     41.739  30.344144     2.2664      7.655   297.4776 9.8427e+01     7.4259      0.086      0.125    11.3246   999.5911 0.0000e+00
      0.090      0.001     5.6015     72.239     41.714  30.320754     2.2779      7.649   298.4687 9.3942e+01     7.4586      0.088      0.128    11.3366   999.5899 0.0000e+00
      0.090      0.002     5.5855     71.990     41.666  30.281196     2.2982      7.644   298.9848 9.3094e+01     7.4376      0.089      0.130    11.3454   999.5890 0.0000e+00
      0.090      0.002     5.5684     71.739     41.626  30.246568     2.3207      7.640   298.7273 9.8207e+01     7.4017      0.088      0.128    11.3499   999.5885 0.0000e+00
      0.090      0.002     5.5492     71.471     41.597  30.219338     2.3333      7.636   298.2813 1.0436e+02     7.4180      0.089      0.129    11.3485   999.5886 0.0000e+00
      0.091      0.002     5.5289     71.198     41.587  30.205780     2.3384      7.634   298.1522 1.0714e+02     7.4390      0.090      0.130    11.3416   999.5893 0.0000e+00
      0.092      0.002     5.5114     70.928     41.601  30.209541     2.3306      7.632   298.3708 1.0535e+02     7.3932      0.090      0.131    11.3350   999.5899 0.0000e+00
      0.093      0.002     5.4939     70.679     41.598  30.201349     2.3083      7.627   298.6880 1.1362e+02     7.2893      0.091      0.132    11.3291   999.5906 0.0000e+00
      0.093      0.001     5.4730     70.477     41.563  30.170188     2.2856      7.622   298.9758 1.2210e+02     7.1984      0.091      0.132    11.3211   999.5915 0.0000e+00
      0.093      0.001     5.4537     70.299     41.542  30.150041     2.2814      7.619   299.0966 1.1150e+02     7.1796      0.091      0.132    11.3135   999.5922 0.0000e+00
      0.093      0.001     5.4334     70.130     41.545  30.148107     2.2831      7.616   299.1168 1.0317e+02     7.1933      0.091      0.132    11.3065   999.5930 0.0000e+00
      0.093      0.001     5.4138     69.991     41.548  30.146799     2.3146      7.613   299.1335 1.1097e+02     7.2332      0.092      0.133    11.2983   999.5939 0.0000e+00
      0.094      0.001     5.4002     69.852     41.534  30.134227     2.3936      7.611   299.1272 1.1843e+02     7.3338      0.092      0.133    11.2911   999.5946 0.0000e+00
      0.094      0.002     5.3888     69.714     41.523  30.123003     2.4499      7.609   298.8692 1.0863e+02     7.3938      0.092      0.134    11.2860   999.5951 0.0000e+00
      0.095      0.002     5.3735     69.602     41.550  30.137999     2.4578      7.607   298.4226 9.5971e+01     7.4009      0.093      0.134    11.2810   999.5956 0.0000e+00
      0.096      0.002     5.3665     69.506     41.802  30.315543     2.4202      7.605   298.2875 9.7520e+01     7.4195      0.094      0.136    11.2771   999.5961 0.0000e+00
      0.096      0.002     5.3555     69.455     42.219  30.619815     2.3582      7.602   298.3537 1.0236e+02     7.4223      0.094      0.136    11.2739   999.5964 0.0000e+00
      0.096      0.003     5.3435     69.507     42.303  30.707597     2.3329      7.599   298.4487 1.0141e+02     7.4027      0.094      0.137    11.2702   999.5968 0.0000e+00
      0.096      0.006     5.3380     69.790     42.093  30.615479     2.3315      7.596   298.5761 9.7517e+01     7.3789      0.094      0.137    11.2650   999.5973 0.0000e+00
      0.097      0.008     5.3291     70.481     41.951  30.584854     2.2890      7.594   298.0010 9.4388e+01     7.3644      0.094      0.137    11.2583   999.5980 0.0000e+00
      0.099      0.009     5.3259     71.712     41.876  30.591218     2.2266      7.592   296.8290 9.5030e+01     7.3582      0.096      0.141    11.2498   999.5993 0.0000e+00
      0.104      0.012     5.3230     73.504     41.782  30.565579     2.2097      7.588   296.1939 1.1753e+02     7.3697      0.102      0.148    11.2744   999.5967 0.0000e+00
      0.108      0.015     5.3290     75.789     41.693  30.528729     2.2237      7.580   296.0009 1.4568e+02     7.4050      0.107      0.155    11.3590   999.5876 0.0000e+00
      0.111      0.016     5.3657     78.408     41.665  30.526427     2.3006      7.571   295.9571 1.8655e+02     7.5233      0.109      0.159    11.4568   999.5773 0.0000e+00
      0.114      0.014     5.4500     81.108     41.664  30.537763     2.4372      7.563   296.0093 2.4282e+02     7.7179      0.109      0.158    11.5323   999.5692 0.0000e+00
      0.120      0.005     5.5825     83.686     41.657  30.538895     2.5058      7.557   295.3410 2.5357e+02     7.8248      0.117      0.170    11.5819   999.5637 0.0000e+00
      0.127     -0.008     5.7555     85.964     41.658  30.540124     2.5062      7.548   294.1575 2.7061e+02     7.8322      0.125      0.183    11.6113   999.5605 0.0000e+00
      0.130     -0.017     5.9604     87.717     41.683  30.552615     2.5023      7.536   293.4873 2.6391e+02     7.8405      0.130      0.189    11.6331   999.5582 0.0000e+00
      0.123     -0.021     6.1689     88.883     41.704  30.563011     2.4493      7.521   293.1748 1.7016e+02     7.7933      0.129      0.188    11.6475   999.5567 0.0000e+00
      0.101     -0.022     6.3662     89.555     41.671  30.538897     2.3422      7.507   292.9603 1.0830e+02     7.6873      0.100      0.145    11.6550   999.5557 0.0000e+00
      0.080     -0.021     6.5489     89.827     41.634  30.514878     2.2824      7.497   293.0440 9.8557e+01     7.6411      0.065      0.094    11.6552   999.5555 0.0000e+00
      0.081     -0.014     6.6848     89.840     41.647  30.526423     2.2815      7.489   293.4130 9.2114e+01     7.6282      0.076      0.110    11.6457   999.5566 0.0000e+00
      0.092     -0.001     6.7695     89.705     41.682  30.551587     2.3223      7.481   293.5491 9.3325e+01     7.5641      0.098      0.142    11.6364   999.5578 0.0000e+00
      0.095      0.015     6.8205     89.466     41.700  30.565308     2.4033      7.473   293.1413 9.4608e+01     7.4551      0.095      0.138    11.6382   999.5575 0.0000e+00
      0.092      0.026     6.8344     89.195     41.697  30.565411     2.4463      7.466   292.6122 9.4917e+01     7.3598      0.088      0.126    11.6455   999.5566 0.0000e+00
      0.097      0.028     6.8321     88.937     41.677  30.552834     2.4519      7.461   292.2286 9.5252e+01     7.3614      0.092      0.133    11.6471   999.5566 0.0000e+00
      0.110      0.028     6.8227     88.694     41.658  30.540152     2.4702      7.454   292.1161 9.2270e+01     7.4747      0.107      0.155    11.6443   999.5569 0.0000e+00
      0.126      0.029     6.8013     88.464     41.656  30.538989     2.4940      7.446   292.1994 8.9435e+01     7.5832      0.127      0.184    11.6448   999.5569 0.0000e+00
      0.136      0.029     6.7789     88.241     41.655  30.538779     2.5061      7.439   292.8918 8.9198e+01     7.6242      0.138      0.201    11.6489   999.5565 0.0000e+00
      0.136      0.024     6.7592     88.028     41.652  30.537616     2.5033      7.432   293.9480 8.8922e+01     7.6427      0.132      0.191    11.6528   999.5561 0.0000e+00
      0.138      0.018     6.7402     87.832     41.634  30.524925     2.4598      7.425   294.2153 8.8177e+01     7.6106      0.133      0.194    11.6535   999.5560 0.0000e+00
      0.145      0.012     6.7236     87.670     41.617  30.512244     2.3794      7.417   294.1447 8.8502e+01     7.4984      0.145      0.211    11.6526   999.5562 0.0000e+00
      0.149      0.006     6.7060     87.552     41.616  30.511195     2.3383      7.411   293.8690 8.7588e+01     7.3994      0.147      0.213    11.6537   999.5561 0.0000e+00
      0.150     -0.004     6.6894     87.451     41.617  30.512245     2.3434      7.406   293.1183 8.5688e+01     7.3977      0.147      0.212    11.6558   999.5558 0.0000e+00
      0.151     -0.027     6.6743     87.358     41.634  30.524935     2.3371      7.403   293.0703 8.3996e+01     7.4449      0.149      0.216    11.6561   999.5557 0.0000e+00
      0.151     -0.059     6.6607     87.277     41.654  30.537720     2.3059      7.398   293.8043 8.3883e+01     7.4456      0.150      0.217    11.6553   999.5559 0.0000e+00
      0.143     -0.091     6.6542     87.204     41.661  30.539924     2.2780      7.392   294.1636 9.0411e+01     7.4057      0.147      0.213    11.6552   999.5558 0.0000e+00
      0.115     -0.112     6.6456     87.155     41.681  30.551575     2.2695      7.383   294.1446 1.0101e+02     7.3891      0.124      0.179    11.6563   999.5556 0.0000e+00
      0.063     -0.115     6.6383     87.121     41.681  30.551679     2.2718      7.371   294.0058 1.0657e+02     7.4086      0.066      0.096    11.6564   999.5554 0.0000e+00
      0.003     -0.100     6.6335     87.082     41.666  30.541182     2.2622      7.358   293.7755 1.0631e+02     7.5427     -0.008     -0.011    11.6531   999.5553 0.0000e+00
     -0.035     -0.071     6.6269     87.043     41.676  30.551576     2.2397      7.348   293.6838 1.0531e+02     7.7647     -0.046     -0.068    11.6496   999.5555 0.0000e+00
     -0.042     -0.032     6.6245     87.036     41.669  30.550441     2.2253      7.340   293.5844 1.0765e+02     7.8326     -0.048     -0.070    11.6468   999.5559 0.0000e+00
     -0.027      0.008     6.6226     87.059     41.632  30.527451     2.2188      7.335   293.4346 1.4136e+02     7.7728     -0.030     -0.044    11.6456   999.5561 0.0000e+00
     -0.002      0.037     6.6196     87.083     41.628  30.527441     2.2651      7.331   293.3353 1.7161e+02     7.7636      0.001      0.001    11.6470   999.5561 0.0000e+00
      0.018      0.048     6.6147     87.107     41.658  30.550316     2.3595      7.327   293.2438 1.3962e+02     7.7862      0.021      0.031    11.6502   999.5558 0.0000e+00
      0.030      0.043     6.6132     87.135     41.658  30.550212     2.4070      7.323   293.1026 1.0549e+02     7.7845      0.031      0.045    11.6558   999.5553 0.0000e+00
      0.037      0.028     6.6161     87.155     41.627  30.526182     2.4055      7.321   292.7461 1.0285e+02     7.7750      0.039      0.056    11.6613   999.5547 0.0000e+00
      0.042      0.009     6.6164     87.167     41.613  30.513595     2.3860      7.318   292.2041 1.0425e+02     7.7048      0.042      0.060    11.6647   999.5543 0.0000e+00
      0.043     -0.007     6.6182     87.187     41.633  30.524934     2.3535      7.313   291.9691 1.0583e+02     7.5255      0.044      0.063    11.6658   999.5542 0.0000e+00
      0.041     -0.013     6.6206     87.215     41.651  30.536368     2.3326      7.307   292.1416 1.0628e+02     7.4097      0.042      0.061    11.6658   999.5542 0.0000e+00
      0.032     -0.005     6.6227     87.226     41.635  30.524924     2.3240      7.297   292.1395 1.0663e+02     7.4189      0.033      0.049    11.6644   999.5543 0.0000e+00
      0.017      0.010     6.6234     87.246     41.615  30.513480     2.3268      7.286   291.8568 1.0666e+02     7.5380      0.018      0.026    11.6602   999.5547 0.0000e+00
      0.007      0.025     6.6252     87.286     41.627  30.524912     2.3405      7.278   291.5634 9.8959e+01     7.7364     -0.004     -0.006    11.6561   999.5550 0.0000e+00
      0.020      0.033     6.6295     87.291     41.641  30.536241     2.3514      7.272   291.5175 8.9092e+01     7.8511      0.008      0.011    11.6540   999.5553 0.0000e+00
      0.057      0.028     6.6291     87.255     41.625  30.523550     2.3549      7.268   291.6461 9.4754e+01     7.8429      0.060      0.086    11.6547   999.5555 0.0000e+00
      0.087      0.005     6.6281     87.225     41.595  30.498378     2.3478      7.264   291.6553 1.6205e+02     7.6372      0.097      0.141    11.6590   999.5552 0.0000e+00
      0.091     -0.040     6.6343     87.202     41.582  30.485707     2.3428      7.262   291.6295 3.4902e+02     7.3297      0.097      0.141    11.6625   999.5548 0.0000e+00
      0.073     -0.105     6.6344     87.192     41.602  30.497254     2.3466      7.262   291.2475 4.3196e+02     7.2064      0.077      0.110    11.6637   999.5546 0.0000e+00
      0.037     -0.172     6.6288     87.193     41.625  30.511079     2.3504      7.261   290.4782 2.5690e+02     7.2604      0.046      0.065    11.6626   999.5546 0.0000e+00
     -0.022     -0.222     6.6289     87.193     41.647  30.525953     2.4243      7.258   290.3297 1.1340e+02     8.1795     -0.012     -0.017    11.6587   999.5547 0.0000e+00
     -0.104     -0.239     6.6265     87.180     41.679  30.550181     3.3523      7.249   291.3442 9.8937e+01    18.8444     -0.101     -0.147    11.6550   999.5547 0.0000e+00
     -0.193     -0.214     6.6268     87.154     41.678  30.550191     5.0743      7.232   292.5067 9.8143e+01    38.4490     -0.193     -0.281    11.6513   999.5546 0.0000e+00
     -0.271     -0.147     6.6277     87.097     41.646  30.526077     6.0093      7.210   292.7690 9.9564e+01    49.1083     -0.275     -0.399    11.6461   999.5549 0.0000e+00
     -0.321     -0.049     6.6287     86.962     41.626  30.512442     5.9958      7.195   292.5374 1.0035e+02    49.3094     -0.330     -0.477    11.6445   999.5548 0.0000e+00
     -0.327      0.057     6.6272     86.766     41.623  30.512244     4.9894      7.189   292.3736 9.9326e+01    40.6507     -0.340     -0.493    11.6468   999.5545 0.0000e+00
     -0.280      0.151     6.6245     86.542     41.634  30.523676     3.1358      7.184   292.0789 9.9775e+01    24.6434     -0.294     -0.426    11.6475   999.5546 0.0000e+00
     -0.189      0.219     6.6240     86.314     41.631  30.523762     2.1201      7.179   291.7283 1.0127e+02    15.9246     -0.186     -0.269    11.6469   999.5552 0.0000e+00
     -0.092      0.250     6.6113     86.107     41.614  30.513282     2.0371      7.177   291.6609 1.0221e+02    14.9994     -0.079     -0.116    11.6474   999.5556 0.0000e+00
     -0.015      0.243     6.5954     85.932     41.627  30.523873     2.1415      7.175   291.6087 1.0384e+02    13.0311     -0.008     -0.013    11.6505   999.5556 0.0000e+00
      0.044      0.208     6.5773     85.792     41.627  30.524922     2.3417      7.174   291.6127 1.0134e+02     9.4960      0.046      0.067    11.6545   999.5554 0.0000e+00
      0.089      0.159     6.5586     85.674     41.629  30.525964     2.4463      7.173   291.8818 9.2480e+01     7.5841      0.094      0.136    11.6580   999.5553 0.0000e+00
      0.118      0.111     6.5423     85.579     41.644  30.536462     2.4527      7.172   291.9371 8.6571e+01     7.4154      0.122      0.177    11.6604   999.5551 0.0000e+00
      0.132      0.071     6.5285     85.503     41.629  30.524933     2.4538      7.171   291.1633 8.6486e+01     7.3258      0.129      0.185    11.6612   999.5551 0.0000e+00
      0.143      0.039     6.5188     85.454     41.615  30.513482     2.4511      7.171   290.0974 8.5751e+01     7.2212      0.139      0.201    11.6616   999.5551 0.0000e+00
      0.151      0.015     6.5092     85.463     41.633  30.524924     2.4460      7.170   289.7183 8.3879e+01     7.1667      0.152      0.222    11.6615   999.5552 0.0000e+00
      0.150      0.003     6.5026     85.520     41.651  30.536367     2.4519      7.169   290.0205 8.4022e+01     7.1583      0.152      0.220    11.6609   999.5553 0.0000e+00
      0.141      0.000     6.4969     85.593     41.638  30.524925     2.4614      7.169   290.6537 8.5876e+01     7.2177      0.138      0.201    11.6602   999.5552 0.0000e+00
      0.132      0.001     6.4919     85.682     41.623  30.513492     2.4572      7.167   290.9218 8.6165e+01     7.3287      0.126      0.183    11.6587   999.5553 0.0000e+00
      0.131      0.004     6.4929     85.772     41.639  30.525038     2.4540      7.165   290.2511 8.5641e+01     7.3862      0.124      0.180    11.6568   999.5556 0.0000e+00
      0.138      0.010     6.5000     85.853     41.656  30.537615     2.4572      7.165   289.1686 8.6036e+01     7.3873      0.134      0.195    11.6547   999.5558 0.0000e+00
      0.148      0.016     6.5043     85.946     41.657  30.538655     2.4603      7.164   288.6737 8.4861e+01     7.3750      0.148      0.214    11.6527   999.5561 0.0000e+00
      0.156      0.020     6.5124     86.041     41.656  30.537606     2.4922      7.161   288.7414 8.3366e+01     7.3359      0.155      0.224    11.6513   999.5563 0.0000e+00
      0.159      0.022     6.5201     86.121     41.639  30.524935     2.5477      7.158   288.9546 8.2848e+01     7.3409      0.155      0.225    11.6512   999.5563 0.0000e+00
      0.161      0.022     6.5240     86.168     41.621  30.512358     2.5763      7.156   289.1867 8.2000e+01     7.4016      0.157      0.227    11.6517   999.5563 0.0000e+00
      0.165      0.023     6.5326     86.188     41.620  30.512453     2.5780      7.153   289.2249 8.2260e+01     7.4472      0.161      0.234    11.6519   999.5563 0.0000e+00
      0.171      0.027     6.5397     86.215     41.638  30.526079     2.5689      7.150   288.9868 8.3027e+01     7.5981      0.166      0.241    11.6515   999.5564 0.0000e+00
      0.180      0.031     6.5466     86.258     41.669  30.550202     2.5524      7.148   288.5438 8.2132e+01     7.8169      0.178      0.258    11.6516   999.5564 0.0000e+00
      0.190      0.031     6.5502     86.300     41.669  30.550306     2.5351      7.147   288.2577 8.1821e+01     7.8647      0.186      0.271    11.6526   999.5563 0.0000e+00
      0.200      0.027     6.5496     86.309     41.637  30.527326     2.5154      7.145   288.1944 8.2413e+01     7.8154      0.194      0.282    11.6534   999.5563 0.0000e+00
      0.210      0.022     6.5521     86.297     41.636  30.526182     2.4794      7.143   288.2946 8.1931e+01     7.7453      0.208      0.301    11.6543   999.5562 0.0000e+00
      0.215      0.018     6.5549     86.299     41.651  30.536470     2.4291      7.142   288.8666 8.2052e+01     7.6388      0.214      0.311    11.6554   999.5562 0.0000e+00
      0.215      0.017     6.5600     86.299     41.637  30.524810     2.4014      7.141   289.4328 8.3577e+01     7.6097      0.212      0.307    11.6560   999.5561 0.0000e+00
      0.214      0.017     6.5602     86.263     41.621  30.512110     2.3950      7.140   289.4620 8.4729e+01     7.6233      0.208      0.301    11.6564   999.5560 0.0000e+00
      0.216      0.021     6.5569     86.198     41.618  30.509822     2.3954      7.139   289.4774 8.6317e+01     7.6723      0.210      0.304    11.6567   999.5560 0.0000e+00
      0.224      0.028     6.5588     86.156     41.599  30.497142     2.3975      7.137   289.7050 8.7331e+01     7.7757      0.220      0.319    11.6551   999.5562 0.0000e+00
      0.234      0.037     6.5600     86.160     41.582  30.485707     2.3949      7.133   289.6323 8.4592e+01     7.8243      0.229      0.332    11.6522   999.5565 0.0000e+00
      0.244      0.042     6.5578     86.190     41.598  30.498482     2.3980      7.129   289.2863 8.1130e+01     7.8345      0.237      0.344    11.6515   999.5567 0.0000e+00
      0.258      0.045     6.5503     86.235     41.633  30.524694     2.4353      7.127   289.9099 7.8042e+01     7.8666      0.252      0.365    11.6522   999.5567 0.0000e+00
      0.273      0.049     6.5466     86.316     41.665  30.548819     2.4998      7.126   291.4083 7.5709e+01     7.8842      0.269      0.390    11.6529   999.5567 0.0000e+00
      0.285      0.055     6.5476     86.428     41.648  30.536346     2.5267      7.124   292.3462 7.6034e+01     7.8503      0.282      0.409    11.6541   999.5566 0.0000e+00
      0.294      0.062     6.5502     86.536     41.599  30.500799     2.5181      7.121   292.7319 7.6027e+01     7.8179      0.286      0.415    11.6558   999.5564 0.0000e+00
      0.306      0.068     6.5521     86.611     41.596  30.499751     2.5172      7.118   292.6304 7.6406e+01     7.8204      0.295      0.428    11.6569   999.5564 0.0000e+00
      0.327      0.072     6.5584     86.617     41.626  30.523676     2.5330      7.113   292.0649 7.6966e+01     7.8472      0.320      0.463    11.6571   999.5565 0.0000e+00
      0.352      0.073     6.5686     86.583     41.641  30.536253     2.5622      7.110   292.4340 7.5732e+01     7.8796      0.347      0.502    11.6574   999.5566 0.0000e+00
      0.377      0.071     6.5764     86.558     41.624  30.524913     2.5756      7.108   293.9104 7.4740e+01     7.8517      0.371      0.537    11.6579   999.5566 0.0000e+00
      0.397      0.065     6.5844     86.533     41.608  30.513471     2.5643      7.108   294.9440 7.3840e+01     7.8057      0.393      0.570    11.6588   999.5566 0.0000e+00
      0.410      0.056     6.5830     86.507     41.624  30.524820     2.5388      7.109   295.1228 7.2582e+01     7.7158      0.404      0.585    11.6607   999.5565 0.0000e+00
      0.419      0.048     6.5779     86.512     41.640  30.535223     2.5009      7.110   295.0401 7.1322e+01     7.5187      0.409      0.594    11.6634   999.5562 0.0000e+00
      0.427      0.044     6.5768     86.546     41.612  30.512340     2.4714      7.111   295.1488 7.0088e+01     7.3892      0.420      0.609    11.6652   999.5560 0.0000e+00
      0.437      0.046     6.5756     86.583     41.601  30.501955     2.4593      7.110   295.4905 6.9129e+01     7.3948      0.427      0.620    11.6652   999.5561 0.0000e+00
      0.447      0.051     6.5713     86.602     41.650  30.536577     2.4839      7.108   295.9024 6.8287e+01     7.5539      0.437      0.635    11.6646   999.5562 0.0000e+00
      0.460      0.056     6.5728     86.587     41.670  30.550214     2.5442      7.107   296.3427 6.7494e+01     7.8052      0.450      0.653    11.6628   999.5565 0.0000e+00
      0.476      0.062     6.5768     86.556     41.657  30.539925     2.5807      7.107   296.6848 6.7078e+01     7.8768      0.464      0.674    11.6591   999.5569 0.0000e+00
      0.495      0.068     6.5802     86.517     41.655  30.539083     2.5784      7.107   296.9408 6.7048e+01     7.8298      0.486      0.705    11.6561   999.5573 0.0000e+00
      0.515      0.073     6.5834     86.462     41.655  30.540037     2.5603      7.105   297.1157 6.6972e+01     7.7950      0.507      0.735    11.6551   999.5576 0.0000e+00
      0.531      0.075     6.5805     86.393     41.669  30.551462     2.5443      7.101   296.7342 6.6656e+01     7.7171      0.521      0.755    11.6544   999.5577 0.0000e+00
      0.550      0.072     6.5787     86.339     41.665  30.550308     2.5408      7.097   295.9412 6.5371e+01     7.6414      0.537      0.779    11.6534   999.5579 0.0000e+00
      0.573      0.067     6.5756     86.319     41.628  30.526079     2.5260      7.095   295.8740 6.2863e+01     7.6011      0.563      0.815    11.6540   999.5580 0.0000e+00
      0.594      0.059     6.5715     86.305     41.605  30.512339     2.4958      7.094   296.6101 6.1133e+01     7.5574      0.587      0.852    11.6555   999.5579 0.0000e+00
      0.609      0.049     6.5653     86.274     41.598  30.511089     2.4706      7.094   297.1832 6.1680e+01     7.4744      0.599      0.871    11.6569   999.5578 0.0000e+00
      0.618      0.038     6.5592     86.209     41.594  30.510975     2.4553      7.094   297.4688 6.1914e+01     7.4160      0.605      0.878    11.6586   999.5577 0.0000e+00
      0.624      0.029     6.5596     86.132     41.593  30.510963     2.4493      7.095   297.7406 6.1133e+01     7.4085      0.613      0.889    11.6617   999.5573 0.0000e+00
      0.628      0.024     6.5576     86.098     41.594  30.510952     2.4493      7.097   297.4581 6.0679e+01     7.3840      0.617      0.895    11.6662   999.5569 0.0000e+00
      0.629      0.024     6.5553     86.098     41.599  30.510838     2.4643      7.098   296.7204 5.9808e+01     7.2509      0.616      0.893    11.6705   999.5564 0.0000e+00
      0.633      0.029     6.5501     86.098     41.604  30.509582     2.4932      7.098   296.4784 5.9211e+01     7.0770      0.618      0.896    11.6744   999.5560 0.0000e+00
      0.641      0.036     6.5404     86.112     41.590  30.495758     2.5123      7.098   296.6829 5.8448e+01     7.0182      0.628      0.911    11.6772   999.5557 0.0000e+00
      0.652      0.042     6.5393     86.167     41.558  30.470594     2.5129      7.099   297.0421 5.7304e+01     6.9668      0.639      0.927    11.6762   999.5559 0.0000e+00
      0.665      0.046     6.5416     86.261     41.542  30.459153     2.5527      7.099   297.4656 5.6328e+01     7.0124      0.652      0.945    11.6701   999.5566 0.0000e+00
      0.682      0.046     6.5418     86.363     41.577  30.484324     2.6467      7.099   297.5018 5.5257e+01     7.2411      0.670      0.970    11.6633   999.5574 0.0000e+00
      0.697      0.045     6.5424     86.424     41.628  30.521120     2.7037      7.099   297.2219 5.4888e+01     7.3735      0.685      0.994    11.6590   999.5580 0.0000e+00
      0.707      0.042     6.5471     86.423     41.631  30.523314     2.7044      7.098   297.0927 5.5075e+01     7.3676      0.695      1.009    11.6570   999.5582 0.0000e+00
      0.713      0.039     6.5551     86.381     41.614  30.510851     2.6819      7.097   297.1440 5.5164e+01     7.3004      0.699      1.013    11.6572   999.5582 0.0000e+00
      0.721      0.036     6.5641     86.337     41.594  30.497338     2.6561      7.096   297.2396 5.5576e+01     7.2164      0.705      1.022    11.6572   999.5582 0.0000e+00
      0.732      0.036     6.5701     86.324     41.578  30.486851     2.6442      7.096   297.3025 5.6330e+01     7.2043      0.719      1.042    11.6569   999.5584 0.0000e+00
      0.742      0.040     6.5686     86.336     41.608  30.510967     2.6419      7.097   297.3879 5.5514e+01     7.2525      0.730      1.057    11.6567   999.5585 0.0000e+00
      0.749      0.046     6.5650     86.365     41.636  30.535099     2.6285      7.098   297.4975 5.3423e+01     7.4062      0.735      1.065    11.6569   999.5585 0.0000e+00
      0.759      0.054     6.5596     86.414     41.617  30.524819     2.5953      7.098   297.5095 5.2303e+01     7.6204      0.741      1.076    11.6572   999.5584 0.0000e+00
      0.773      0.062     6.5595     86.464     41.598  30.513585     2.5781      7.098   297.5328 5.1046e+01     7.7448      0.757      1.098    11.6585   999.5584 0.0000e+00
      0.792      0.070     6.5603     86.515     41.613  30.526181     2.5854      7.098   297.6072 4.9037e+01     7.8287      0.777      1.126    11.6618   999.5581 0.0000e+00
      0.813      0.075     6.5605     86.566     41.644  30.550203     2.6148      7.097   297.7211 4.7185e+01     8.0127      0.796      1.156    11.6668   999.5577 0.0000e+00
      0.835      0.076     6.5655     86.595     41.643  30.550203     2.6647      7.095   297.8775 4.5392e+01     8.2324      0.818      1.187    11.6718   999.5573 0.0000e+00
      0.857      0.074     6.5678     86.586     41.609  30.526191     2.6944      7.095   297.8639 4.3916e+01     8.3221      0.840      1.219    11.6749   999.5570 0.0000e+00
      0.878      0.069     6.5714     86.552     41.590  30.513700     2.7050      7.094   297.8147 4.2724e+01     8.3107      0.863      1.251    11.6764   999.5569 0.0000e+00
      0.894      0.064     6.5765     86.523     41.607  30.526079     2.7057      7.094   297.9706 4.1604e+01     8.2590      0.879      1.275    11.6771   999.5569 0.0000e+00
      0.906      0.059     6.5786     86.508     41.638  30.548954     2.6507      7.093   298.1136 4.0474e+01     8.1223      0.887      1.288    11.6780   999.5569 0.0000e+00
      0.918      0.055     6.5777     86.513     41.620  30.536463     2.5610      7.092   298.1676 3.9551e+01     7.9367      0.901      1.306    11.6796   999.5567 0.0000e+00
      0.932      0.054     6.5733     86.548     41.573  30.501954     2.5223      7.089   298.1940 3.8988e+01     7.8497      0.914      1.326    11.6810   999.5566 0.0000e+00
      0.945      0.055     6.5714     86.595     41.588  30.512452     2.5301      7.087   298.1737 3.8559e+01     7.8570      0.927      1.345    11.6815   999.5566 0.0000e+00
      0.960      0.057     6.5701     86.654     41.621  30.536472     2.5594      7.087   298.1804 3.8094e+01     7.8601      0.940      1.364    11.6815   999.5567 0.0000e+00
      0.975      0.059     6.5694     86.736     41.624  30.538561     2.6083      7.086   298.1897 3.7486e+01     7.8552      0.955      1.385    11.6819   999.5568 0.0000e+00
      0.991      0.060     6.5736     86.819     41.623  30.537709     2.6353      7.085   298.1141 3.6914e+01     7.8631      0.972      1.410    11.6819   999.5568 0.0000e+00
      1.006      0.062     6.5771     86.882     41.607  30.526171     2.6430      7.085   298.0402 3.6629e+01     7.8896      0.988      1.433    11.6813   999.5570 0.0000e+00
      1.021      0.063     6.5806     86.935     41.607  30.525963     2.6674      7.084   298.0708 3.6515e+01     7.9462      1.002      1.453    11.6810   999.5571 0.0000e+00
      1.037      0.064     6.5879     86.950     41.619  30.535203     2.6957      7.083   298.1398 3.6375e+01     8.0233      1.016      1.474    11.6807   999.5572 0.0000e+00
      1.054      0.066     6.5955     86.909     41.587  30.510975     2.6992      7.082   298.1859 3.6213e+01     8.0689      1.032      1.497    11.6804   999.5573 0.0000e+00
      1.072      0.066     6.5986     86.845     41.554  30.486843     2.7020      7.081   298.1974 3.5830e+01     8.0708      1.051      1.524    11.6803   999.5574 0.0000e+00
      1.090      0.066     6.6042     86.751     41.569  30.497246     2.7375      7.080   298.2795 3.5620e+01     7.9473      1.069      1.550    11.6808   999.5574 0.0000e+00
      1.107      0.061     6.6065     86.617     41.587  30.509842     2.7901      7.080   298.4038 3.5452e+01     7.7228      1.085      1.574    11.6812   999.5575 0.0000e+00
      1.125      0.054     6.6008     86.467     41.590  30.512235     2.8176      7.080   298.3240 3.4667e+01     7.6178      1.103      1.601    11.6809   999.5576 0.0000e+00
      1.140      0.046     6.5970     86.304     41.609  30.526172     2.8274      7.080   298.3466 3.4070e+01     7.6292      1.119      1.624    11.6801   999.5577 0.0000e+00
      1.151      0.039     6.5910     86.162     41.644  30.551451     2.9255      7.080   298.5915 3.3968e+01     7.6958      1.130      1.640    11.6797   999.5578 0.0000e+00
      1.156      0.034     6.5788     86.103     41.662  30.564047     3.0939      7.079   298.6185 3.3855e+01     7.8012      1.134      1.645    11.6795   999.5579 0.0000e+00
      1.159      0.032     6.5683     86.092     41.646  30.551566     3.1733      7.079   298.5866 3.3745e+01     7.8213      1.134      1.645    11.6794   999.5579 0.0000e+00
      1.165      0.033     6.5557     86.083     41.614  30.527451     3.1748      7.079   298.5498 3.3374e+01     7.8084      1.142      1.656    11.6792   999.5579 0.0000e+00
      1.174      0.037     6.5406     86.101     41.612  30.526298     3.1714      7.080   298.3450 3.2499e+01     7.8416      1.152      1.670    11.6785   999.5581 0.0000e+00
      1.185      0.042     6.5394     86.154     41.627  30.537618     3.0720      7.081   298.2619 3.1891e+01     7.7973      1.160      1.681    11.6777   999.5582 0.0000e+00
      1.198      0.046     6.5405     86.219     41.626  30.537409     2.8834      7.081   298.5775 3.1679e+01     7.6658      1.174      1.703    11.6767   999.5584 0.0000e+00
      1.213      0.048     6.5377     86.257     41.606  30.523773     2.7813      7.081   299.0638 3.1051e+01     7.5952      1.192      1.729    11.6755   999.5586 0.0000e+00
      1.226      0.049     6.5397     86.247     41.572  30.499658     2.7651      7.080   299.3243 3.0525e+01     7.5991      1.203      1.745    11.6758   999.5586 0.0000e+00
      1.238      0.050     6.5434     86.217     41.572  30.499658     2.7312      7.080   299.3175 3.0654e+01     7.5816      1.214      1.760    11.6775   999.5585 0.0000e+00
      1.248      0.050     6.5498     86.183     41.605  30.523781     2.6751      7.080   299.0673 3.0687e+01     7.5477      1.224      1.774    11.6790   999.5583 0.0000e+00
      1.260      0.050     6.5536     86.156     41.624  30.537502     2.6411      7.080   298.9656 3.0197e+01     7.5502      1.235      1.789    11.6797   999.5583 0.0000e+00
      1.275      0.050     6.5509     86.151     41.626  30.538646     2.6324      7.080   299.3786 2.9797e+01     7.5791      1.250      1.814    11.6799   999.5583 0.0000e+00
      1.290      0.049     6.5488     86.164     41.624  30.537606     2.5875      7.078   299.8466 2.9763e+01     7.5695      1.267      1.837    11.6801   999.5584 0.0000e+00
      1.302      0.045     6.5461     86.188     41.607  30.524936     2.5055      7.077   299.9772 2.9703e+01     7.4982      1.278      1.853    11.6802   999.5585 0.0000e+00
      1.313      0.039     6.5428     86.222     41.590  30.512369     2.4560      7.077   300.0109 2.9392e+01     7.4387      1.287      1.867    11.6801   999.5585 0.0000e+00
      1.323      0.033     6.5435     86.256     41.590  30.512568     2.4487      7.077   300.0820 2.9140e+01     7.4070      1.299      1.884    11.6798   999.5586 0.0000e+00
      1.332      0.028     6.5442     86.285     41.612  30.527338     2.4688      7.077   300.0634 2.9348e+01     7.4440      1.309      1.898    11.6796   999.5587 0.0000e+00
      1.337      0.024     6.5460     86.298     41.664  30.564039     2.5075      7.077   299.7850 2.9514e+01     7.5584      1.312      1.902    11.6801   999.5586 0.0000e+00
      1.340      0.024     6.5492     86.295     41.682  30.575585     2.5275      7.076   299.5559 2.9478e+01     7.6100      1.313      1.905    11.6803   999.5586 0.0000e+00
      1.343      0.028     6.5515     86.270     41.633  30.540018     2.5276      7.076   299.7886 2.9670e+01     7.5764      1.318      1.911    11.6799   999.5587 0.0000e+00
      1.348      0.035     6.5547     86.227     41.598  30.514741     2.5693      7.076   300.0170 2.9676e+01     7.5440      1.321      1.916    11.6783   999.5589 0.0000e+00
      1.357      0.044     6.5557     86.209     41.610  30.523791     2.6513      7.076   300.1661 2.9400e+01     7.5785      1.329      1.927    11.6760   999.5593 0.0000e+00
      1.371      0.052     6.5558     86.209     41.608  30.522525     2.6944      7.076   300.4731 2.9105e+01     7.6337      1.344      1.949    11.6744   999.5595 0.0000e+00
      1.390      0.058     6.5548     86.171     41.577  30.499430     2.7001      7.076   300.1150 2.8888e+01     7.6552      1.363      1.977    11.6743   999.5595 0.0000e+00
      1.409      0.063     6.5489     86.127     41.576  30.498380     2.7037      7.076   299.1059 2.8675e+01     7.6736      1.382      2.005    11.6751   999.5595 0.0000e+00
      1.425      0.064     6.5471     86.122     41.592  30.509822     2.6950      7.076   298.6824 2.8139e+01     7.7901      1.398      2.028    11.6758   999.5595 0.0000e+00
      1.440      0.062     6.5511     86.118     41.593  30.510862     2.6726      7.076   298.7810 2.7489e+01     7.9836      1.412      2.048    11.6757   999.5596 0.0000e+00
      1.456      0.057     6.5462     86.088     41.593  30.510957     2.6493      7.076   298.9211 2.7007e+01     8.0466      1.428      2.071    11.6755   999.5597 0.0000e+00
      1.472      0.053     6.5398     86.021     41.593  30.510976     2.6384      7.076   299.3443 2.6722e+01     8.0271      1.444      2.095    11.6753   999.5598 0.0000e+00
      1.486      0.049     6.5430     85.913     41.593  30.511091     2.6539      7.075   299.8533 2.6466e+01     7.9121      1.458      2.116    11.6752   999.5599 0.0000e+00
      1.496      0.045     6.5421     85.806     41.595  30.512340     2.6895      7.074   299.4840 2.6269e+01     7.6390      1.468      2.130    11.6753   999.5599 0.0000e+00
      1.505      0.041     6.5404     85.723     41.614  30.526080     2.7135      7.074   298.3210 2.6072e+01     7.4448      1.475      2.140    11.6753   999.5599 0.0000e+00
      1.515      0.037     6.5364     85.657     41.647  30.550308     2.7095      7.075   297.7505 2.5785e+01     7.3996      1.486      2.155    11.6754   999.5600 0.0000e+00
      1.525      0.036     6.5257     85.594     41.648  30.551462     2.7015      7.075   298.0918 2.5575e+01     7.4538      1.496      2.169    11.6753   999.5600 0.0000e+00
      1.534      0.037     6.5175     85.547     41.632  30.540030     2.7041      7.075   298.6628 2.5443e+01     7.5749      1.503      2.180    11.6752   999.5601 0.0000e+00
      1.542      0.038     6.5111     85.529     41.631  30.538990     2.7065      7.075   298.8892 2.5404e+01     7.6193      1.512      2.193    11.6753   999.5601 0.0000e+00
      1.550      0.042     6.5071     85.544     41.631  30.538896     2.7133      7.074   298.5920 2.5290e+01     7.5972      1.520      2.204    11.6754   999.5602 0.0000e+00
      1.560      0.048     6.5014     85.593     41.631  30.538887     2.7947      7.074   297.9944 2.5053e+01     7.7002      1.529      2.217    11.6754   999.5602 0.0000e+00
      1.573      0.056     6.4975     85.678     41.631  30.538887     2.9365      7.073   297.6006 2.4876e+01     7.9137      1.542      2.236    11.6755   999.5602 0.0000e+00
      1.588      0.062     6.4962     85.782     41.631  30.538887     3.0053      7.072   297.5310 2.4648e+01     8.0488      1.556      2.258    11.6756   999.5603 0.0000e+00
      1.605      0.067     6.4973     85.875     41.631  30.538886     3.0033      7.070   297.4112 2.3917e+01     8.0889      1.571      2.279    11.6756   999.5604 0.0000e+00
      1.625      0.069     6.5009     85.945     41.631  30.538877     2.9376      7.068   297.1847 2.3017e+01     8.1692      1.593      2.310    11.6757   999.5605 0.0000e+00
      1.648      0.068     6.5074     85.967     41.631  30.538772     2.8269      7.068   297.6309 2.2467e+01     8.2662      1.619      2.347    11.6755   999.5606 0.0000e+00
      1.666      0.067     6.5174     85.945     41.630  30.537619     2.7748      7.068   298.6765 2.2035e+01     8.2784      1.635      2.371    11.6752   999.5607 0.0000e+00
      1.680      0.064     6.5232     85.904     41.615  30.524938     2.7665      7.065   298.9856 2.1660e+01     8.2843      1.647      2.389    11.6751   999.5608 0.0000e+00
      1.694      0.061     6.5305     85.834     41.600  30.512361     2.7699      7.063   298.4427 2.1212e+01     8.3040      1.661      2.409    11.6751   999.5609 0.0000e+00
      1.708      0.060     6.5317     85.739     41.600  30.512455     2.8157      7.061   297.7916 2.0618e+01     8.3535      1.674      2.428    11.6749   999.5609 0.0000e+00
      1.725      0.061     6.5289     85.666     41.619  30.526071     2.9045      7.057   297.5659 2.0096e+01     8.4890      1.691      2.453    11.6740   999.5611 0.0000e+00
      1.741      0.063     6.5269     85.638     41.651  30.550090     2.9680      7.055   298.4665 1.9613e+01     8.5655      1.708      2.478    11.6717   999.5614 0.0000e+00
      1.756      0.063     6.5221     85.612     41.649  30.549040     2.9670      7.054   300.1633 1.9087e+01     8.5248      1.719      2.494    11.6707   999.5616 0.0000e+00
      1.772      0.062     6.5132     85.593     41.600  30.513380     2.8761      7.053   300.7879 1.8553e+01     8.3248      1.736      2.518    11.6711   999.5616 0.0000e+00
      1.791      0.060     6.5056     85.624     41.582  30.499659     2.7269      7.053   300.3404 1.8065e+01     8.0160      1.757      2.549    11.6712   999.5617 0.0000e+00
      1.807      0.056     6.5069     85.674     41.597  30.510053     2.6549      7.053   300.1721 1.7694e+01     7.9043      1.773      2.572    11.6713   999.5618 0.0000e+00
      1.821      0.051     6.5041     85.727     41.600  30.512142     2.6637      7.053   299.8725 1.7407e+01     7.9237      1.787      2.591    11.6718   999.5618 0.0000e+00
      1.832      0.046     6.4999     85.801     41.617  30.524910     2.7386      7.053   299.2133 1.7177e+01     7.8255      1.797      2.606    11.6720   999.5618 0.0000e+00
      1.841      0.041     6.5045     85.847     41.635  30.537514     2.8668      7.053   299.5143 1.6966e+01     7.6666      1.805      2.617    11.6719   999.5618 0.0000e+00
      1.850      0.037     6.5096     85.864     41.635  30.537619     2.9389      7.052   300.6725 1.6726e+01     7.6090      1.814      2.630    11.6712   999.5620 0.0000e+00
      1.860      0.034     6.5108     85.907     41.620  30.526176     2.9434      7.052   301.1718 1.6531e+01     7.6204      1.825      2.647    11.6704   999.5621 0.0000e+00
      1.870      0.034     6.5200     85.961     41.621  30.526081     2.8692      7.053   301.0775 1.6348e+01     7.6739      1.835      2.661    11.6702   999.5622 0.0000e+00
      1.877      0.035     6.5236     86.003     41.635  30.536467     2.7265      7.052   300.8226 1.6278e+01     7.7964      1.842      2.671    11.6701   999.5622 0.0000e+00
      1.882      0.037     6.5211     86.040     41.618  30.524834     2.6399      7.051   300.4991 1.6283e+01     7.8559      1.845      2.676    11.6703   999.5623 0.0000e+00
      1.890      0.038     6.5267     86.077     41.600  30.512342     2.6459      7.051   300.4352 1.6047e+01     7.8367      1.850      2.684    11.6701   999.5623 0.0000e+00
      1.904      0.039     6.5314     86.131     41.599  30.512341     2.8414      7.051   300.5668 1.5758e+01     7.8917      1.867      2.708    11.6686   999.5626 0.0000e+00
      1.918      0.042     6.5339     86.186     41.615  30.524823     3.1835      7.054   300.7988 1.5601e+01     8.0295      1.884      2.732    11.6685   999.5627 0.0000e+00
      1.927      0.046     6.5370     86.190     41.630  30.536351     3.3574      7.054   301.0041 1.5410e+01     8.0609      1.889      2.741    11.6699   999.5625 0.0000e+00
      1.935      0.048     6.5387     86.147     41.614  30.524814     3.3661      7.054   301.1561 1.5230e+01     8.0418      1.897      2.751    11.6709   999.5624 0.0000e+00
      1.948      0.047     6.5426     86.090     41.596  30.512237     3.3673      7.054   301.2597 1.5024e+01     8.0934      1.910      2.768    11.6714   999.5624 0.0000e+00
      1.963      0.047     6.5498     86.039     41.595  30.511198     3.3285      7.054   300.6222 1.4716e+01     8.0954      1.924      2.790    11.6720   999.5624 0.0000e+00
      1.978      0.048     6.5488     85.996     41.597  30.512248     3.2530      7.055   299.5571 1.4479e+01     8.0655      1.941      2.816    11.6728   999.5624 0.0000e+00
      1.991      0.048     6.5446     85.951     41.615  30.524929     3.2083      7.055   299.3082 1.4340e+01     8.0595      1.955      2.834    11.6733   999.5624 0.0000e+00
      1.999      0.046     6.5397     85.908     41.631  30.537620     3.1952      7.054   299.5055 1.4221e+01     8.0558      1.961      2.844    11.6732   999.5625 0.0000e+00
      2.009      0.042     6.5358     85.894     41.632  30.538783     3.1898      7.053   299.8789 1.4067e+01     8.0857      1.967      2.854    11.6730   999.5625 0.0000e+00
      2.022      0.040     6.5330     85.914     41.632  30.538983     3.1863      7.053   300.5531 1.3880e+01     8.0938      1.984      2.876    11.6724   999.5627 0.0000e+00
      2.034      0.042     6.5298     85.928     41.633  30.540041     3.1786      7.053   300.7738 1.3756e+01     8.0555      1.997      2.896    11.6724   999.5627 0.0000e+00
      2.041      0.048     6.5253     85.908     41.648  30.551579     3.1754      7.052   299.9663 1.3684e+01     8.0481      2.000      2.901    11.6734   999.5626 0.0000e+00
      2.048      0.056     6.5235     85.857     41.648  30.551569     3.2256      7.050   298.7904 1.3618e+01     8.1356      2.006      2.909    11.6741   999.5626 0.0000e+00
      2.061      0.065     6.5271     85.811     41.632  30.539927     3.3262      7.049   298.5155 1.3466e+01     8.2619      2.019      2.928    11.6745   999.5626 0.0000e+00
      2.080      0.072     6.5280     85.782     41.628  30.537725     3.3769      7.046   298.7940 1.3181e+01     8.2644      2.038      2.956    11.6748   999.5627 0.0000e+00
      2.104      0.077     6.5275     85.757     41.611  30.524947     3.3621      7.043   299.1464 1.2828e+01     8.2311      2.063      2.992    11.6751   999.5628 0.0000e+00
      2.131      0.078     6.5214     85.762     41.594  30.512342     3.2690      7.043   299.5069 1.2479e+01     8.3178      2.092      3.034    11.6757   999.5628 0.0000e+00
      2.155      0.073     6.5175     85.816     41.594  30.512228     3.1088      7.043   299.1090 1.2237e+01     8.3624      2.116      3.069    11.6759   999.5629 0.0000e+00
      2.172      0.064     6.5168     85.904     41.609  30.523565     3.0204      7.042   298.2073 1.2086e+01     8.3111      2.131      3.092    11.6758   999.5630 0.0000e+00
      2.183      0.054     6.5133     86.020     41.608  30.522507     3.0149      7.041   297.7248 1.1971e+01     8.2880      2.141      3.105    11.6758   999.5630 0.0000e+00
      2.193      0.046     6.5130     86.151     41.577  30.499442     3.0336      7.041   297.6628 1.1857e+01     8.2474      2.150      3.118    11.6757   999.5631 0.0000e+00
      2.203      0.043     6.5183     86.251     41.576  30.498507     3.0651      7.042   297.8017 1.1754e+01     8.1801      2.163      3.136    11.6757   999.5631 0.0000e+00
      2.212      0.043     6.5247     86.312     41.593  30.511198     3.0834      7.044   298.1141 1.1678e+01     8.1295      2.171      3.148    11.6756   999.5632 0.0000e+00
      2.221      0.046     6.5333     86.345     41.613  30.525978     3.0903      7.045   298.3429 1.1525e+01     8.0941      2.176      3.155    11.6757   999.5632 0.0000e+00
      2.233      0.051     6.5456     86.346     41.646  30.550299     3.0871      7.046   298.2444 1.1327e+01     8.0808      2.188      3.173    11.6757   999.5632 0.0000e+00
      2.248      0.056     6.5530     86.333     41.648  30.551443     3.0625      7.047   298.0413 1.1135e+01     8.1321      2.204      3.196    11.6756   999.5634 0.0000e+00
      2.264      0.061     6.5569     86.339     41.632  30.539812     3.0359      7.047   298.0385 1.0875e+01     8.2560      2.219      3.219    11.6756   999.5634 0.0000e+00
      2.281      0.063     6.5600     86.364     41.628  30.536579     3.0163      7.046   298.0393 1.0586e+01     8.3333      2.237      3.245    11.6757   999.5635 0.0000e+00
      2.299      0.061     6.5597     86.397     41.595  30.512351     2.9820      7.046   298.0500 1.0306e+01     8.3124      2.255      3.270    11.6755   999.5636 0.0000e+00
      2.316      0.058     6.5572     86.447     41.579  30.500701     2.8560      7.046   298.5122 1.0034e+01     8.1345      2.272      3.295    11.6755   999.5637 0.0000e+00
      2.331      0.055     6.5579     86.508     41.609  30.522622     2.6622      7.046   299.2390 9.8295e+00     7.8212      2.289      3.319    11.6755   999.5638 0.0000e+00
      2.342      0.052     6.5603     86.536     41.611  30.523577     2.5728      7.046   299.5242 9.6873e+00     7.6378      2.297      3.332    11.6756   999.5638 0.0000e+00
      2.351      0.050     6.5626     86.512     41.596  30.512240     2.5896      7.047   299.4666 9.5096e+00     7.6216      2.304      3.342    11.6755   999.5638 0.0000e+00
      2.364      0.049     6.5657     86.463     41.596  30.512457     2.6577      7.048   299.2309 9.2986e+00     7.7231      2.318      3.363    11.6755   999.5639 0.0000e+00
      2.379      0.050     6.5727     86.408     41.614  30.526197     2.7634      7.048   298.7389 9.1432e+00     7.9149      2.335      3.385    11.6753   999.5640 0.0000e+00
      2.391      0.050     6.5757     86.360     41.648  30.551466     2.8268      7.047   298.5085 8.9839e+00     8.0395      2.345      3.400    11.6745   999.5641 0.0000e+00
      2.404      0.049     6.5720     86.328     41.665  30.564156     2.8521      7.047   299.1116 8.7507e+00     8.0824      2.355      3.417    11.6744   999.5642 0.0000e+00
      2.420      0.047     6.5686     86.324     41.649  30.552724     3.0262      7.048   300.1803 8.5314e+00     7.9745      2.374      3.442    11.6747   999.5643 0.0000e+00
      2.433      0.046     6.5631     86.326     41.632  30.540147     3.3451      7.049   300.5900 8.4000e+00     7.7185      2.389      3.464    11.6748   999.5643 0.0000e+00
      2.441      0.048     6.5604     86.323     41.631  30.539004     3.5262      7.050   300.1927 8.3316e+00     7.5763      2.394      3.473    11.6754   999.5643 0.0000e+00
      2.448      0.050     6.5562     86.337     41.631  30.538900     3.5426      7.050   299.6785 8.2381e+00     7.6313      2.399      3.479    11.6758   999.5643 0.0000e+00
      2.460      0.052     6.5571     86.357     41.631  30.538890     3.3866      7.051   299.4498 8.0676e+00     7.7286      2.410      3.496    11.6758   999.5643 0.0000e+00
      2.477      0.055     6.5585     86.384     41.631  30.538890     3.0800      7.052   299.6641 7.8879e+00     7.7691      2.428      3.522    11.6757   999.5644 0.0000e+00
      2.495      0.058     6.5558     86.407     41.631  30.538890     2.9134      7.053   300.1196 7.7300e+00     7.7928      2.446      3.548    11.6756   999.5645 0.0000e+00
      2.512      0.060     6.5590     86.407     41.630  30.538889     2.9066      7.053   300.3967 7.5933e+00     7.8183      2.464      3.573    11.6757   999.5646 0.0000e+00
      2.527      0.061     6.5591     86.382     41.630  30.538880     2.8928      7.053   300.5195 7.5068e+00     7.8153      2.480      3.596    11.6756   999.5647 0.0000e+00
      2.540      0.064     6.5621     86.346     41.630  30.538785     2.8418      7.052   300.5711 7.4233e+00     7.7577      2.491      3.612    11.6757   999.5647 0.0000e+00
      2.552      0.067     6.5646     86.308     41.628  30.537735     2.7849      7.051   300.4190 7.2815e+00     7.6790      2.501      3.627    11.6757   999.5648 0.0000e+00
      2.569      0.068     6.5642     86.249     41.612  30.526189     2.7602      7.049   300.1429 7.0851e+00     7.6501      2.517      3.652    11.6758   999.5648 0.0000e+00
      2.591      0.068     6.5624     86.175     41.612  30.526093     2.7852      7.047   300.0718 6.8433e+00     7.6369      2.540      3.684    11.6758   999.5649 0.0000e+00
      2.614      0.063     6.5584     86.107     41.627  30.536581     3.0531      7.046   300.2475 6.6047e+00     7.6829      2.564      3.719    11.6760   999.5650 0.0000e+00
      2.635      0.056     6.5573     86.055     41.612  30.526083     3.5196      7.046   300.2884 6.4728e+00     7.7813      2.587      3.752    11.6761   999.5652 0.0000e+00
      2.648      0.047     6.5519     86.029     41.612  30.526073     3.7612      7.046   300.2219 6.4602e+00     7.8114      2.601      3.771    11.6760   999.5652 0.0000e+00
      2.652      0.038     6.5457     86.007     41.627  30.536467     3.7811      7.046   300.3044 6.4810e+00     7.8494      2.602      3.773    11.6761   999.5652 0.0000e+00
      2.654      0.032     6.5408     85.971     41.611  30.524835     3.6906      7.047   300.1670 6.4616e+00     8.0112      2.600      3.771    11.6761   999.5652 0.0000e+00
      2.661      0.030     6.5357     85.951     41.594  30.512343     3.4995      7.047   299.6803 6.3936e+00     8.2272      2.608      3.783    11.6760   999.5652 0.0000e+00
      2.671      0.033     6.5346     85.950     41.594  30.512343     3.3945      7.047   299.4090 6.2993e+00     8.3318      2.620      3.801    11.6762   999.5653 0.0000e+00
      2.680      0.039     6.5345     85.949     41.611  30.524835     3.3754      7.047   299.3823 6.2036e+00     8.3251      2.629      3.812    11.6762   999.5653 0.0000e+00
      2.689      0.046     6.5297     85.980     41.628  30.536467     3.2334      7.047   299.5295 6.1176e+00     8.2441      2.636      3.824    11.6760   999.5654 0.0000e+00
      2.701      0.051     6.5279     86.036     41.613  30.526063     2.9787      7.048   299.8122 6.0098e+00     8.1063      2.647      3.840    11.6759   999.5654 0.0000e+00
      2.715      0.056     6.5302     86.086     41.613  30.525959     2.8442      7.049   299.8755 5.8844e+00     8.0363      2.662      3.861    11.6757   999.5655 0.0000e+00
      2.731      0.060     6.5274     86.154     41.627  30.535209     2.8305      7.049   299.6059 5.7468e+00     8.0523      2.676      3.881    11.6754   999.5656 0.0000e+00
      2.749      0.064     6.5302     86.234     41.594  30.510991     2.8390      7.049   299.2195 5.5916e+00     8.0705      2.695      3.909    11.6751   999.5658 0.0000e+00
      2.767      0.067     6.5370     86.293     41.562  30.486963     2.8690      7.049   299.0757 5.4679e+00     8.0927      2.716      3.939    11.6750   999.5658 0.0000e+00
      2.783      0.069     6.5381     86.329     41.577  30.498509     2.8889      7.048   299.3299 5.3599e+00     8.1235      2.729      3.957    11.6751   999.5659 0.0000e+00
      2.798      0.071     6.5442     86.357     41.611  30.523681     2.8889      7.046   299.7979 5.2127e+00     8.0820      2.742      3.976    11.6747   999.5660 0.0000e+00
      2.817      0.072     6.5518     86.393     41.630  30.537498     2.8781      7.044   300.0874 5.0422e+00     8.0177      2.762      4.006    11.6743   999.5661 0.0000e+00
      2.838      0.073     6.5557     86.426     41.631  30.538660     2.8441      7.043   300.0779 4.8617e+00     8.1652      2.783      4.036    11.6738   999.5663 0.0000e+00
      2.858      0.074     6.5586     86.457     41.629  30.537725     2.7986      7.041   299.8541 4.6762e+00     8.4569      2.802      4.065    11.6739   999.5664 0.0000e+00
      2.877      0.074     6.5593     86.501     41.613  30.526199     2.7701      7.041   299.6195 4.5092e+00     8.5626      2.821      4.092    11.6746   999.5664 0.0000e+00
      2.895      0.070     6.5631     86.541     41.613  30.526209     2.7506      7.040   299.6499 4.3608e+00     8.5256      2.839      4.117    11.6748   999.5665 0.0000e+00
      2.914      0.065     6.5657     86.562     41.629  30.537840     2.7020      7.038   299.8771 4.2255e+00     8.3371      2.857      4.145    11.6749   999.5665 0.0000e+00
      2.932      0.060     6.5665     86.583     41.632  30.539918     2.6335      7.037   300.1297 4.1100e+00     7.9546      2.876      4.172    11.6750   999.5666 0.0000e+00
      2.946      0.056     6.5712     86.617     41.647  30.551343     2.5981      7.037   300.2945 4.0208e+00     7.7019      2.890      4.192    11.6749   999.5667 0.0000e+00
      2.957      0.052     6.5750     86.658     41.644  30.549065     2.5959      7.038   300.3219 3.9529e+00     7.6417      2.900      4.206    11.6753   999.5667 0.0000e+00
      2.968      0.049     6.5749     86.687     41.594  30.512365     2.6677      7.039   300.2890 3.8807e+00     7.6194      2.910      4.221    11.6758   999.5667 0.0000e+00
      2.981      0.048     6.5769     86.705     41.561  30.488346     2.8067      7.040   300.2410 3.8118e+00     7.6289      2.923      4.240    11.6757   999.5668 0.0000e+00
      2.992      0.048     6.5791     86.730     41.595  30.512477     2.8816      7.040   300.2578 3.7645e+00     7.6580      2.935      4.257    11.6758   999.5668 0.0000e+00
      3.003      0.048     6.5832     86.735     41.647  30.550312     2.8961      7.040   300.3197 3.6997e+00     7.6438      2.944      4.270    11.6758   999.5669 0.0000e+00
      3.017      0.048     6.5857     86.704     41.667  30.565063     2.9737      7.040   300.3022 3.6137e+00     7.6208      2.959      4.292    11.6759   999.5669 0.0000e+00
      3.031      0.048     6.5854     86.654     41.665  30.563928     3.1087      7.040   300.2179 3.5557e+00     7.6433      2.975      4.314    11.6757   999.5670 0.0000e+00
      3.043      0.048     6.5891     86.588     41.628  30.536580     3.1843      7.041   300.1600 3.5218e+00     7.6860      2.985      4.329    11.6755   999.5671 0.0000e+00
      3.053      0.050     6.5901     86.507     41.562  30.488220     3.1939      7.042   300.2045 3.4809e+00     7.7103      2.994      4.342    11.6756   999.5671 0.0000e+00
      3.064      0.054     6.5862     86.420     41.561  30.486859     3.1392      7.043   300.3258 3.4281e+00     7.7412      3.004      4.356    11.6756   999.5672 0.0000e+00
      3.076      0.059     6.5831     86.333     41.607  30.520117     3.0251      7.042   300.5083 3.3651e+00     7.8623      3.015      4.374    11.6757   999.5672 0.0000e+00
      3.091      0.064     6.5780     86.270     41.592  30.509610     2.9591      7.041   300.6894 3.2813e+00     7.9956      3.029      4.392    11.6754   999.5673 0.0000e+00
      3.111      0.067     6.5712     86.224     41.561  30.486725     2.9476      7.041   300.6227 3.1709e+00     8.0421      3.051      4.424    11.6746   999.5674 0.0000e+00
      3.135      0.067     6.5656     86.174     41.574  30.497240     2.9472      7.041   300.3902 3.0707e+00     8.0301      3.077      4.462    11.6742   999.5676 0.0000e+00
      3.154      0.064     6.5569     86.109     41.591  30.509837     3.0066      7.040   300.2881 3.0128e+00     7.8515      3.096      4.490    11.6740   999.5678 0.0000e+00
      3.168      0.058     6.5533     86.043     41.594  30.512127     3.1192      7.039   300.2484 2.9624e+00     7.5534      3.107      4.506    11.6739   999.5678 0.0000e+00
      3.181      0.051     6.5501     86.000     41.611  30.524929     3.1813      7.040   300.3407 2.8900e+00     7.4085      3.119      4.524    11.6745   999.5678 0.0000e+00
      3.192      0.044     6.5465     85.986     41.629  30.537715     3.1774      7.040   300.6289 2.8289e+00     7.4101      3.132      4.542    11.6749   999.5678 0.0000e+00
      3.202      0.038     6.5416     86.012     41.632  30.539805     3.0894      7.040   300.5503 2.7956e+00     7.4087      3.140      4.555    11.6756   999.5678 0.0000e+00
      3.212      0.034     6.5348     86.066     41.647  30.550199     2.9315      7.040   300.0785 2.7573e+00     7.3597      3.151      4.570    11.6761   999.5678 0.0000e+00
      3.220      0.031     6.5324     86.133     41.628  30.536469     2.8463      7.041   299.8286 2.7191e+00     7.3412      3.160      4.583    11.6758   999.5679 0.0000e+00
      3.225      0.030     6.5303     86.213     41.578  30.500714     2.8395      7.041   299.7659 2.6943e+00     7.3827      3.163      4.587    11.6756   999.5679 0.0000e+00
      3.230      0.030     6.5330     86.273     41.575  30.498626     2.8758      7.042   299.8365 2.6629e+00     7.4025      3.167      4.593    11.6756   999.5679 0.0000e+00
      3.237      0.031     6.5379     86.290     41.593  30.511220     2.9464      7.043   299.9942 2.6210e+00     7.4162      3.174      4.604    11.6756   999.5680 0.0000e+00
      3.247      0.035     6.5420     86.267     41.613  30.526076     2.9819      7.043   299.9518 2.5786e+00     7.4500      3.184      4.619    11.6756   999.5680 0.0000e+00
      3.256      0.040     6.5497     86.208     41.648  30.551333     2.9845      7.043   299.8394 2.5383e+00     7.4836      3.194      4.632    11.6758   999.5680 0.0000e+00
      3.266      0.044     6.5549     86.149     41.663  30.562783     2.9521      7.043   299.7542 2.4936e+00     7.6586      3.203      4.645    11.6759   999.5681 0.0000e+00
      3.278      0.046     6.5553     86.105     41.628  30.537612     2.8855      7.043   299.6100 2.4497e+00     7.9926      3.214      4.661    11.6760   999.5681 0.0000e+00
      3.291      0.048     6.5546     86.052     41.578  30.500807     2.8462      7.043   299.4727 2.4043e+00     8.2128      3.228      4.681    11.6761   999.5682 0.0000e+00
      3.305      0.048     6.5480     85.986     41.575  30.498509     2.8326      7.043   299.4710 2.3518e+00     8.2892      3.241      4.701    11.6758   999.5683 0.0000e+00
      3.318      0.047     6.5434     85.946     41.592  30.509839     2.7811      7.043   299.5893 2.3060e+00     8.1620      3.254      4.720    11.6757   999.5683 0.0000e+00
      3.330      0.044     6.5412     85.952     41.596  30.510880     2.6916      7.043   299.9558 2.2697e+00     7.8219      3.266      4.737    11.6760   999.5684 0.0000e+00
      3.341      0.040     6.5373     85.980     41.600  30.511087     2.6350      7.043   300.3745 2.2399e+00     7.6183      3.277      4.753    11.6759   999.5684 0.0000e+00
      3.351      0.035     6.5311     86.003     41.606  30.512344     2.6260      7.043   300.2649 2.2151e+00     7.6002      3.288      4.769    11.6757   999.5685 0.0000e+00
      3.359      0.031     6.5268     86.011     41.626  30.526076     2.6268      7.043   300.0068 2.1852e+00     7.6028      3.294      4.778    11.6750   999.5686 0.0000e+00
      3.366      0.027     6.5291     86.022     41.660  30.550200     2.5916      7.043   299.8358 2.1525e+00     7.5845      3.300      4.786    11.6730   999.5688 0.0000e+00
      3.372      0.023     6.5323     86.049     41.660  30.550200     2.5298      7.043   299.5730 2.1349e+00     7.5758      3.309      4.798    11.6693   999.5693 0.0000e+00
      3.377      0.019     6.5352     86.080     41.626  30.526077     2.5040      7.043   300.0131 2.1304e+00     7.5967      3.312      4.804    11.6657   999.5697 0.0000e+00
      3.382      0.016     6.5354     86.105     41.608  30.512356     2.5138      7.044   300.9412 2.1238e+00     7.6069      3.315      4.808    11.6639   999.5700 0.0000e+00
      3.387      0.012     6.5356     86.116     41.608  30.511213     2.5537      7.044   301.2442 2.1171e+00     7.6007      3.322      4.818    11.6621   999.5702 0.0000e+00
      3.390      0.009     6.5385     86.113     41.610  30.512253     2.6127      7.043   301.0947 2.1180e+00     7.6204      3.325      4.823    11.6626   999.5700 0.0000e+00
      3.390      0.008     6.5404     86.110     41.626  30.524933     2.6387      7.042   300.6825 2.1159e+00     7.6486      3.324      4.821    11.6653   999.5698 0.0000e+00
      3.390      0.008     6.5427     86.105     41.642  30.537613     2.6418      7.042   300.1321 2.1101e+00     7.6469      3.324      4.821    11.6647   999.5699 0.0000e+00
      3.390      0.009     6.5442     86.100     41.642  30.538661     2.6588      7.042   300.4630 2.1084e+00     7.6979      3.325      4.822    11.6621   999.5702 0.0000e+00
      3.391      0.012     6.5431     86.109     41.638  30.537603     2.6882      7.043   301.5862 2.0912e+00     7.8060      3.325      4.823    11.6619   999.5702 0.0000e+00
      3.395      0.014     6.5430     86.124     41.620  30.524818     2.7110      7.044   302.0973 2.0700e+00     7.8735      3.329      4.828    11.6631   999.5700 0.0000e+00
      3.402      0.017     6.5428     86.139     41.601  30.510993     2.7182      7.045   301.9964 2.0595e+00     7.8910      3.336      4.839    11.6639   999.5700 0.0000e+00
      3.408      0.021     6.5413     86.177     41.584  30.497357     2.8098      7.045   301.8292 2.0462e+00     7.8211      3.344      4.850    11.6651   999.5699 0.0000e+00
      3.413      0.025     6.5418     86.234     41.570  30.486859     3.0030      7.045   301.5380 2.0238e+00     7.6839      3.347      4.854    11.6678   999.5696 0.0000e+00
      3.417      0.030     6.5441     86.283     41.602  30.510972     3.1205      7.045   301.6594 1.9857e+00     7.6405      3.349      4.857    11.6692   999.5695 0.0000e+00
      3.424      0.035     6.5433     86.325     41.632  30.535085     3.1218      7.044   302.2642 1.9496e+00     7.6571      3.356      4.867    11.6681   999.5696 0.0000e+00
      3.434      0.037     6.5468     86.357     41.616  30.524588     2.9758      7.043   302.5697 1.9210e+00     7.6558      3.367      4.884    11.6663   999.5699 0.0000e+00
      3.447      0.034     6.5529     86.361     41.596  30.510961     2.7159      7.042   302.5143 1.8672e+00     7.6898      3.379      4.902    11.6656   999.5700 0.0000e+00
      3.462      0.024     6.5554     86.321     41.577  30.497240     2.5799      7.042   302.4543 1.8001e+00     7.6753      3.395      4.924    11.6675   999.5699 0.0000e+00
      3.474      0.010     6.5584     86.232     41.562  30.485600     2.5710      7.042   302.4469 1.7726e+00     7.6110      3.412      4.947    11.6702   999.5697 0.0000e+00
      3.476     -0.005     6.5613     86.126     41.581  30.497128     2.5742      7.042   302.4244 1.7976e+00     7.6000      3.414      4.952    11.6718   999.5695 0.0000e+00
      3.465     -0.018     6.5619     86.029     41.601  30.509713     2.6442      7.042   302.0966 1.8446e+00     7.5757      3.401      4.931    11.6728   999.5693 0.0000e+00
      3.449     -0.027     6.5592     85.934     41.604  30.510857     2.7673      7.042   301.5808 1.8788e+00     7.5139      3.379      4.901    11.6733   999.5692 0.0000e+00
      3.437     -0.029     6.5515     85.879     41.604  30.510962     2.8226      7.041   301.4359 1.8989e+00     7.4430      3.367      4.882    11.6725   999.5692 0.0000e+00
      3.432     -0.023     6.5423     85.889     41.605  30.510972     2.8194      7.040   301.8942 1.9103e+00     7.3743      3.366      4.880    11.6691   999.5696 0.0000e+00
      3.429     -0.011     6.5371     85.942     41.606  30.510973     2.7624      7.037   302.6481 1.9049e+00     7.5020      3.363      4.878    11.6660   999.5699 0.0000e+00
      3.424      0.003     6.5281     86.057     41.608  30.510973     2.6456      7.033   302.9796 1.8870e+00     7.7750      3.357      4.869    11.6655   999.5699 0.0000e+00
      3.424      0.013     6.5222     86.227     41.608  30.510974     2.5772      7.029   302.2876 1.8637e+00     7.8891      3.355      4.867    11.6653   999.5699 0.0000e+00
      3.431      0.019     6.5263     86.398     41.607  30.510983     2.5768      7.027   301.2506 1.8282e+00     7.8988      3.362      4.877    11.6643   999.5701 0.0000e+00
      3.443      0.026     6.5279     86.534     41.606  30.511088     2.6247      7.026   301.1106 1.7805e+00     8.0236      3.376      4.897    11.6633   999.5703 0.0000e+00
      3.453      0.034     6.5372     86.617     41.605  30.512242     2.7141      7.025   301.4552 1.7529e+00     8.2504      3.389      4.914    11.6624   999.5704 0.0000e+00
      3.458      0.040     6.5525     86.651     41.620  30.524932     2.7645      7.024   301.8893 1.7461e+00     8.3799      3.392      4.919    11.6621   999.5705 0.0000e+00
      3.463      0.045     6.5656     86.618     41.635  30.537613     2.7650      7.024   302.4016 1.7275e+00     8.3770      3.394      4.921    11.6621   999.5705 0.0000e+00
      3.475      0.048     6.5772     86.524     41.635  30.538662     2.7460      7.025   301.7986 1.6890e+00     8.4115      3.405      4.938    11.6635   999.5704 0.0000e+00
      3.494      0.049     6.5818     86.402     41.632  30.537613     2.7082      7.026   300.3636 1.6468e+00     8.5347      3.427      4.970    11.6657   999.5702 0.0000e+00
      3.513      0.050     6.5855     86.259     41.614  30.524931     2.6907      7.026   299.6775 1.6183e+00     8.6214      3.448      5.001    11.6680   999.5701 0.0000e+00
      3.526      0.048     6.5827     86.125     41.598  30.512241     2.7068      7.026   299.6117 1.6052e+00     8.6077      3.460      5.018    11.6702   999.5699 0.0000e+00
      3.534      0.043     6.5730     86.039     41.597  30.511088     2.7472      7.026   299.9122 1.5933e+00     8.4010      3.465      5.025    11.6720   999.5697 0.0000e+00
      3.543      0.039     6.5649     85.996     41.598  30.510983     2.7976      7.027   300.6436 1.5683e+00     8.0562      3.474      5.039    11.6732   999.5697 0.0000e+00
      3.552      0.038     6.5526     85.991     41.599  30.510973     2.8220      7.029   301.0557 1.5529e+00     7.8795      3.484      5.054    11.6736   999.5696 0.0000e+00
      3.558      0.042     6.5408     86.023     41.599  30.510973     2.8258      7.030   300.6785 1.5574e+00     7.8712      3.489      5.061    11.6729   999.5697 0.0000e+00
      3.567      0.047     6.5355     86.067     41.598  30.510973     2.8255      7.031   299.7826 1.5332e+00     7.8574      3.495      5.071    11.6720   999.5699 0.0000e+00
      3.582      0.052     6.5322     86.110     41.597  30.510983     2.8620      7.032   299.1719 1.4742e+00     7.8770      3.511      5.092    11.6707   999.5701 0.0000e+00
      3.600      0.056     6.5315     86.153     41.597  30.511096     2.9551      7.032   299.1456 1.4249e+00     7.9772      3.531      5.120    11.6693   999.5703 0.0000e+00
      3.616      0.058     6.5355     86.179     41.598  30.512335     3.0146      7.032   299.2922 1.3928e+00     8.0522      3.546      5.143    11.6697   999.5704 0.0000e+00
      3.631      0.058     6.5388     86.201     41.616  30.525961     3.0094      7.032   299.3957 1.3695e+00     8.0627      3.562      5.166    11.6711   999.5703 0.0000e+00
      3.646      0.057     6.5410     86.228     41.646  30.548939     2.9091      7.033   299.7094 1.3499e+00     8.1045      3.577      5.188    11.6720   999.5703 0.0000e+00
      3.658      0.057     6.5458     86.244     41.628  30.536344     2.7298      7.034   300.0731 1.3238e+00     8.1970      3.588      5.204    11.6723   999.5703 0.0000e+00
      3.671      0.058     6.5469     86.249     41.579  30.500580     2.6358      7.034   300.0073 1.2921e+00     8.2639      3.599      5.220    11.6730   999.5703 0.0000e+00
      3.685      0.058     6.5476     86.254     41.574  30.497253     2.6403      7.033   299.7739 1.2584e+00     8.2901      3.613      5.240    11.6736   999.5702 0.0000e+00
      3.702      0.058     6.5511     86.279     41.573  30.496119     2.6540      7.032   299.5741 1.2243e+00     8.2511      3.630      5.266    11.6742   999.5703 0.0000e+00
      3.719      0.057     6.5516     86.329     41.560  30.486871     2.6545      7.032   299.4850 1.1937e+00     8.1534      3.647      5.289    11.6746   999.5703 0.0000e+00
      3.736      0.057     6.5520     86.370     41.595  30.512336     2.6459      7.032   300.1583 1.1597e+00     8.0923      3.664      5.314    11.6750   999.5703 0.0000e+00
      3.750      0.057     6.5516     86.391     41.646  30.550199     2.6544      7.032   301.3481 1.1234e+00     8.1022      3.679      5.338    11.6752   999.5704 0.0000e+00
      3.760      0.059     6.5527     86.404     41.666  30.563930     2.7915      7.033   301.8256 1.0983e+00     8.0767      3.688      5.348    11.6751   999.5704 0.0000e+00
      3.770      0.063     6.5586     86.418     41.649  30.551448     3.0379      7.033   301.3715 1.0867e+00     7.9473      3.694      5.358    11.6751   999.5704 0.0000e+00
      3.786      0.068     6.5614     86.421     41.615  30.526190     3.1705      7.033   300.6763 1.0657e+00     7.8493      3.710      5.381    11.6751   999.5705 0.0000e+00
      3.809      0.073     6.5630     86.411     41.596  30.512357     3.1816      7.032   300.4743 1.0257e+00     7.8420      3.735      5.417    11.6750   999.5707 0.0000e+00
      3.832      0.077     6.5633     86.415     41.594  30.511099     3.1639      7.031   301.2525 9.8679e-01     7.9574      3.760      5.453    11.6749   999.5708 0.0000e+00
      3.852      0.077     6.5649     86.429     41.594  30.510984     3.1296      7.031   302.5148 9.4325e-01     8.1635      3.778      5.480    11.6749   999.5709 0.0000e+00
      3.872      0.075     6.5659     86.436     41.593  30.510974     3.1137      7.031   303.0019 9.0111e-01     8.2690      3.797      5.507    11.6744   999.5710 0.0000e+00
      3.891      0.072     6.5634     86.441     41.593  30.510973     3.1184      7.031   302.8402 8.8360e-01     8.2826      3.819      5.539    11.6742   999.5712 0.0000e+00
      3.907      0.068     6.5644     86.452     41.593  30.510974     3.1173      7.030   302.7971 8.7609e-01     8.2948      3.833      5.559    11.6742   999.5712 0.0000e+00
      3.922      0.064     6.5657     86.450     41.593  30.510983     3.0658      7.030   302.4813 8.5206e-01     8.2848      3.844      5.575    11.6744   999.5712 0.0000e+00
      3.940      0.059     6.5666     86.437     41.593  30.511087     2.9808      7.030   301.7749 8.2027e-01     8.2599      3.865      5.604    11.6749   999.5713 0.0000e+00
      3.957      0.055     6.5654     86.410     41.595  30.512232     2.9397      7.030   301.7409 8.0290e-01     8.2565      3.884      5.632    11.6751   999.5714 0.0000e+00
      3.971      0.053     6.5681     86.341     41.612  30.524818     2.9330      7.030   302.5864 7.8990e-01     8.2769      3.895      5.649    11.6749   999.5714 0.0000e+00
      3.982      0.053     6.5676     86.266     41.628  30.536355     2.8655      7.030   303.2222 7.7710e-01     8.2119      3.905      5.664    11.6749   999.5715 0.0000e+00
      3.992      0.055     6.5652     86.205     41.613  30.524818     2.7309      7.029   303.4065 7.6625e-01     7.9944      3.914      5.676    11.6751   999.5715 0.0000e+00
      4.003      0.060     6.5667     86.141     41.596  30.512232     2.6488      7.028   303.3511 7.4755e-01     7.8102      3.923      5.690    11.6749   999.5716 0.0000e+00
      4.019      0.067     6.5583     86.090     41.595  30.511088     2.6354      7.027   303.1555 7.2951e-01     7.7867      3.940      5.714    11.6746   999.5717 0.0000e+00
      4.039      0.074     6.5524     86.062     41.595  30.510984     2.6300      7.025   302.9337 7.0900e-01     7.8746      3.962      5.746    11.6743   999.5719 0.0000e+00
      4.060      0.080     6.5494     86.051     41.596  30.510976     2.6351      7.024   302.7344 6.7484e-01     7.9881      3.981      5.775    11.6737   999.5720 0.0000e+00
      4.082      0.082     6.5431     86.051     41.596  30.510984     2.6460      7.022   302.7254 6.4047e-01     8.0446      4.002      5.805    11.6737   999.5721 0.0000e+00
      4.106      0.080     6.5392     86.060     41.597  30.511089     2.6482      7.018   302.8242 6.2060e-01     8.0663      4.028      5.842    11.6740   999.5722 0.0000e+00
      4.128      0.075     6.5373     86.075     41.599  30.512243     2.7055      7.016   303.0682 6.1312e-01     8.0866      4.048      5.872    11.6733   999.5724 0.0000e+00
      4.148      0.068     6.5370     86.100     41.617  30.524932     2.8185      7.016   303.3532 6.0367e-01     8.0609      4.067      5.899    11.6728   999.5725 0.0000e+00
      4.165      0.060     6.5367     86.114     41.635  30.537605     2.8795      7.015   302.8284 5.9232e-01     8.0170      4.087      5.929    11.6725   999.5726 0.0000e+00
      4.177      0.052     6.5381     86.103     41.637  30.538550     2.8870      7.014   301.7128 5.8161e-01     8.0146      4.098      5.944    11.6720   999.5727 0.0000e+00
      4.187      0.043     6.5384     86.083     41.635  30.536357     2.8916      7.015   301.3074 5.6620e-01     7.9007      4.103      5.950    11.6714   999.5728 0.0000e+00
      4.198      0.036     6.5416     86.057     41.601  30.511090     2.9005      7.016   301.4553 5.5790e-01     7.6242      4.117      5.971    11.6706   999.5730 0.0000e+00
      4.209      0.032     6.5435     86.011     41.568  30.486871     2.8998      7.017   301.6936 5.5735e-01     7.4236      4.130      5.990    11.6697   999.5732 0.0000e+00
      4.214      0.033     6.5413     85.959     41.582  30.497359     2.8831      7.018   302.1237 5.5259e-01     7.3764      4.133      5.994    11.6689   999.5732 0.0000e+00
      4.216      0.037     6.5404     85.943     41.600  30.510985     2.8804      7.018   302.0097 5.5059e-01     7.4141      4.133      5.995    11.6684   999.5733 0.0000e+00
      4.221      0.043     6.5388     85.973     41.618  30.524707     2.8936      7.019   301.3468 5.3934e-01     7.6171      4.136      6.000    11.6680   999.5734 0.0000e+00
      4.234      0.051     6.5355     86.022     41.634  30.536357     2.8948      7.019   301.0787 5.0704e-01     7.9296      4.150      6.020    11.6681   999.5734 0.0000e+00
      4.252      0.058     6.5292     86.064     41.617  30.524932     2.8870      7.019   301.1773 4.8630e-01     8.0794      4.170      6.049    11.6687   999.5734 0.0000e+00
      4.272      0.061     6.5280     86.092     41.600  30.513491     2.8683      7.019   301.3339 4.7930e-01     8.0844      4.188      6.074    11.6691   999.5735 0.0000e+00
      4.292      0.059     6.5313     86.118     41.615  30.524933     2.7993      7.018   301.5094 4.6155e-01     7.9909      4.209      6.105    11.6696   999.5735 0.0000e+00
      4.310      0.054     6.5355     86.137     41.630  30.536367     2.7020      7.018   301.5787 4.4464e-01     7.7675      4.230      6.136    11.6695   999.5737 0.0000e+00
      4.322      0.046     6.5392     86.136     41.614  30.524820     2.6550      7.019   301.4831 4.4334e-01     7.6447      4.239      6.150    11.6706   999.5736 0.0000e+00
      4.328      0.038     6.5399     86.107     41.596  30.512234     2.6467      7.021   301.2137 4.4754e-01     7.6523      4.245      6.156    11.6725   999.5734 0.0000e+00
      4.334      0.032     6.5422     86.056     41.595  30.511100     2.6538      7.022   300.9890 4.4987e-01     7.6968      4.251      6.164    11.6732   999.5733 0.0000e+00
      4.342      0.028     6.5442     86.018     41.596  30.511109     2.6804      7.021   301.0037 4.4672e-01     7.7891      4.258      6.176    11.6734   999.5733 0.0000e+00
      4.350      0.029     6.5440     86.001     41.601  30.512349     2.6999      7.021   301.1329 4.3165e-01     7.8509      4.267      6.189    11.6737   999.5733 0.0000e+00
      4.355      0.031     6.5421     85.987     41.624  30.526079     2.7065      7.022   301.2604 4.1010e-01     7.8546      4.270      6.194    11.6742   999.5733 0.0000e+00
      4.360      0.032     6.5369     86.007     41.659  30.550212     2.7090      7.022   301.3410 3.9053e-01     7.8338      4.274      6.199    11.6739   999.5734 0.0000e+00
      4.370      0.032     6.5334     86.071     41.660  30.550317     2.7115      7.022   301.3336 3.8419e-01     7.8285      4.285      6.214    11.6725   999.5736 0.0000e+00
      4.384      0.033     6.5348     86.165     41.629  30.527338     2.7112      7.024   301.2565 3.9089e-01     7.8551      4.301      6.237    11.6701   999.5739 0.0000e+00
      4.394      0.036     6.5317     86.268     41.626  30.526203     2.7229      7.026   301.1830 3.9274e-01     7.8940      4.311      6.252    11.6661   999.5744 0.0000e+00
      4.399      0.038     6.5338     86.324     41.639  30.536596     2.9311      7.026   301.1333 3.8957e-01     7.9709      4.313      6.256    11.6633   999.5747 0.0000e+00
      4.405      0.040     6.5398     86.341     41.623  30.526089     3.3209      7.026   301.0860 3.8819e-01     8.0637      4.317      6.261    11.6632   999.5748 0.0000e+00
      4.415      0.043     6.5458     86.346     41.621  30.526079     3.5341      7.026   301.2996 3.7950e-01     8.0986      4.329      6.279    11.6632   999.5748 0.0000e+00
      4.430      0.048     6.5575     86.304     41.633  30.536472     3.5500      7.026   301.7366 3.6815e-01     8.0978      4.345      6.302    11.6633   999.5749 0.0000e+00
      4.444      0.053     6.5598     86.220     41.615  30.524830     3.5394      7.026   301.8962 3.5900e-01     8.1189      4.358      6.322    11.6654   999.5748 0.0000e+00
      4.457      0.055     6.5594     86.152     41.596  30.512235     3.4575      7.027   301.8527 3.4547e-01     8.1902      4.370      6.338    11.6676   999.5745 0.0000e+00
      4.472      0.055     6.5617     86.100     41.593  30.511099     3.3232      7.028   301.7271 3.3243e-01     8.2722      4.385      6.359    11.6691   999.5744 0.0000e+00
      4.488      0.053     6.5585     86.042     41.592  30.511099     3.2594      7.028   301.4964 3.2391e-01     8.3233      4.402      6.384    11.6705   999.5744 0.0000e+00
      4.503      0.052     6.5487     86.017     41.592  30.512234     3.2407      7.027   301.3859 3.1833e-01     8.3492      4.418      6.408    11.6719   999.5743 0.0000e+00
      4.514      0.053     6.5440     86.028     41.608  30.524819     3.1151      7.027   301.5099 3.2323e-01     8.3891      4.429      6.423    11.6740   999.5741 0.0000e+00
      4.524      0.055     6.5414     86.022     41.623  30.536357     2.9012      7.026   301.8765 3.2567e-01     8.4777      4.435      6.430    11.6761   999.5739 0.0000e+00
      4.537      0.059     6.5345     86.000     41.607  30.524829     2.7874      7.025   302.1186 3.0667e-01     8.5353      4.446      6.449    11.6772   999.5738 0.0000e+00
      4.554      0.064     6.5318     85.975     41.589  30.512348     2.7802      7.024   302.0285 2.8433e-01     8.5615      4.467      6.477    11.6778   999.5738 0.0000e+00
      4.571      0.068     6.5359     85.930     41.589  30.512357     2.7792      7.023   301.9052 2.6982e-01     8.5322      4.483      6.503    11.6784   999.5738 0.0000e+00
      4.591      0.068     6.5345     85.906     41.606  30.524934     2.7664      7.022   301.8332 2.5968e-01     8.4112      4.501      6.527    11.6792   999.5739 0.0000e+00
      4.612      0.066     6.5312     85.937     41.622  30.537512     2.7560      7.022   301.8447 2.4999e-01     8.3104      4.524      6.561    11.6799   999.5739 0.0000e+00
      4.631      0.062     6.5321     85.999     41.622  30.537521     2.7580      7.022   301.9591 2.4106e-01     8.2639      4.545      6.592    11.6801   999.5740 0.0000e+00
      4.645      0.058     6.5259     86.084     41.605  30.525041     2.7468      7.022   302.0117 2.4257e-01     8.2756      4.557      6.609    11.6805   999.5740 0.0000e+00
      4.655      0.054     6.5225     86.177     41.589  30.513523     2.7160      7.022   302.0501 2.3729e-01     8.2881      4.564      6.620    11.6810   999.5739 0.0000e+00
      4.665      0.053     6.5271     86.252     41.605  30.525165     2.6979      7.021   302.0797 2.1440e-01     8.2833      4.575      6.634    11.6813   999.5740 0.0000e+00
      4.679      0.054     6.5308     86.297     41.624  30.538895     2.7008      7.021   302.0254 2.0943e-01     8.3161      4.589      6.655    11.6815   999.5740 0.0000e+00
      4.694      0.055     6.5378     86.310     41.643  30.552616     2.7165      7.020   301.9099 2.2438e-01     8.3900      4.602      6.675    11.6816   999.5741 0.0000e+00
      4.709      0.055     6.5461     86.288     41.659  30.564152     2.7325      7.019   301.8016 2.2083e-01     8.4875      4.616      6.695    11.6817   999.5741 0.0000e+00
      4.726      0.055     6.5515     86.227     41.641  30.551471     2.7288      7.019   301.8354 1.9680e-01     8.5455      4.636      6.723    11.6818   999.5742 0.0000e+00
      4.742      0.055     6.5556     86.148     41.607  30.526204     2.7149      7.019   301.9735 1.7528e-01     8.5669      4.652      6.747    11.6818   999.5743 0.0000e+00
      4.752      0.057     6.5559     86.079     41.588  30.512473     2.7038      7.019   302.0951 1.6608e-01     8.5495      4.660      6.760    11.6819   999.5743 0.0000e+00
      4.761      0.061     6.5552     86.025     41.588  30.512360     2.6982      7.017   302.1866 1.6305e-01     8.4990      4.667      6.770    11.6818   999.5744 0.0000e+00
      4.775      0.064     6.5497     85.995     41.605  30.524831     2.6997      7.016   302.2196 1.6151e-01     8.4806      4.681      6.789    11.6819   999.5744 0.0000e+00
      4.795      0.068     6.5423     85.978     41.621  30.536359     2.7034      7.015   302.1503 1.6358e-01     8.4906      4.702      6.819    11.6817   999.5745 0.0000e+00
      4.818      0.071     6.5379     85.952     41.605  30.524830     2.7092      7.014   302.0369 1.5972e-01     8.4895      4.725      6.853    11.6815   999.5746 0.0000e+00
      4.839      0.071     6.5329     85.930     41.588  30.512350     2.7271      7.014   301.9673 1.5070e-01     8.4013      4.746      6.884    11.6817   999.5747 0.0000e+00
      4.857      0.067     6.5309     85.931     41.588  30.512369     2.7549      7.014   301.9106 1.4767e-01     8.2103      4.763      6.908    11.6816   999.5748 0.0000e+00
      4.873      0.060     6.5309     85.949     41.605  30.525060     2.7666      7.014   301.8675 1.4410e-01     8.0813      4.778      6.930    11.6815   999.5749 0.0000e+00
      4.888      0.054     6.5282     85.969     41.624  30.538887     2.7739      7.013   301.8763 1.4451e-01     8.0543      4.794      6.953    11.6817   999.5750 0.0000e+00
      4.900      0.051     6.5256     86.004     41.642  30.552636     2.8429      7.013   301.9309 1.4749e-01     7.9819      4.806      6.971    11.6818   999.5750 0.0000e+00
      4.909      0.050     6.5260     86.072     41.659  30.564382     2.9595      7.014   302.0971 1.3791e-01     7.8624      4.814      6.983    11.6816   999.5751 0.0000e+00
      4.918      0.050     6.5283     86.164     41.644  30.553997     3.0133      7.015   302.2521 1.3139e-01     7.8218      4.822      6.994    11.6815   999.5751 0.0000e+00
      4.931      0.053     6.5291     86.246     41.644  30.553989     2.9998      7.016   302.1692 1.3329e-01     7.8509      4.835      7.012    11.6817   999.5752 0.0000e+00
      4.947      0.058     6.5313     86.321     41.659  30.564277     2.9521      7.016   302.0417 1.3005e-01     7.9851      4.853      7.038    11.6819   999.5752 0.0000e+00
      4.962      0.062     6.5362     86.394     41.641  30.551483     2.8700      7.014   302.1727 1.2690e-01     8.2326      4.866      7.058    11.6820   999.5753 0.0000e+00
      4.979      0.063     6.5451     86.432     41.607  30.526205     2.8217      7.014   302.3777 1.2584e-01     8.3523      4.881      7.079    11.6819   999.5754 0.0000e+00
      4.998      0.061     6.5511     86.440     41.588  30.512474     2.8279      7.014   302.4547 1.2435e-01     8.3177      4.901      7.109    11.6818   999.5755 0.0000e+00
      5.015      0.056     6.5554     86.418     41.588  30.512372     2.8934      7.014   302.5014 1.2407e-01     8.1752      4.920      7.136    11.6817   999.5756 0.0000e+00
      5.030      0.052     6.5637     86.349     41.605  30.524957     2.9974      7.014   302.5116 1.2454e-01     7.9724      4.935      7.156    11.6815   999.5757 0.0000e+00
      5.041      0.048     6.5652     86.244     41.623  30.537732     3.0445      7.014   302.4925 1.2466e-01     7.8969      4.945      7.171    11.6813   999.5757 0.0000e+00
      5.050      0.046     6.5659     86.124     41.626  30.539925     3.0473      7.014   302.5275 1.2415e-01     7.8857      4.952      7.181    11.6812   999.5758 0.0000e+00
      5.059      0.047     6.5653     86.027     41.641  30.551463     3.0574      7.014   302.4193 1.2377e-01     7.8376      4.961      7.195    11.6811   999.5758 0.0000e+00
      5.070      0.053     6.5592     85.978     41.640  30.550328     3.0709      7.014   302.3028 1.2370e-01     7.8395      4.972      7.212    11.6812   999.5758 0.0000e+00
      5.082      0.061     6.5510     85.952     41.607  30.526204     3.0811      7.012   302.4959 1.2374e-01     7.8750      4.983      7.227    11.6812   999.5759 0.0000e+00
      5.098      0.067     6.5409     85.950     41.590  30.513609     3.0759      7.010   302.6891 1.2375e-01     7.8415      4.997      7.248    11.6812   999.5760 0.0000e+00
      5.119      0.072     6.5320     86.000     41.606  30.524946     3.0597      7.008   302.7453 1.2374e-01     7.7953      5.018      7.278    11.6813   999.5761 0.0000e+00
      5.144      0.072     6.5299     86.066     41.622  30.536371     3.0416      7.007   302.8318 1.2381e-01     7.8728      5.045      7.317    11.6814   999.5762 0.0000e+00
      5.166      0.069     6.5286     86.119     41.606  30.524832     3.0219      7.007   302.5294 1.2386e-01     8.0241      5.068      7.351    11.6814   999.5763 0.0000e+00
      5.183      0.064     6.5254     86.155     41.589  30.512350     3.0121      7.008   301.8425 1.2382e-01     8.0842      5.084      7.372    11.6810   999.5764 0.0000e+00
      5.196      0.060     6.5322     86.177     41.589  30.512360     3.0096      7.010   301.6682 1.2378e-01     8.0437      5.097      7.392    11.6808   999.5765 0.0000e+00
      5.207      0.058     6.5375     86.197     41.606  30.524947     3.0177      7.010   301.8855 1.2378e-01     8.0583      5.107      7.407    11.6808   999.5766 0.0000e+00
      5.217      0.058     6.5413     86.187     41.623  30.537629     3.0412      7.010   301.9745 1.2381e-01     8.1958      5.115      7.418    11.6806   999.5766 0.0000e+00
      5.231      0.062     6.5447     86.133     41.624  30.538792     3.0594      7.009   302.2282 1.2381e-01     8.2971      5.128      7.438    11.6801   999.5767 0.0000e+00
      5.250      0.067     6.5449     86.091     41.624  30.539002     3.0559      7.006   302.6294 1.2378e-01     8.2999      5.148      7.467    11.6800   999.5768 0.0000e+00
      5.269      0.071     6.5481     86.091     41.626  30.540165     2.9733      7.004   302.2658 1.2375e-01     8.3278      5.168      7.495    11.6804   999.5769 0.0000e+00
      5.289      0.071     6.5480     86.081     41.643  30.552857     2.8235      7.004   301.1866 1.2379e-01     8.4047      5.186      7.522    11.6810   999.5769 0.0000e+00
      5.310      0.066     6.5418     86.058     41.661  30.565547     2.7444      7.004   300.5942 1.2381e-01     8.4761      5.206      7.551    11.6814   999.5769 0.0000e+00
      5.331      0.060     6.5361     86.057     41.662  30.566690     2.7543      7.004   300.5241 1.2376e-01     8.5021      5.231      7.587    11.6816   999.5771 0.0000e+00
      5.346      0.054     6.5401     86.061     41.662  30.566682     2.7949      7.005   300.6828 1.2369e-01     8.3264      5.248      7.610    11.6817   999.5771 0.0000e+00
      5.353      0.049     6.5389     86.070     41.660  30.565443     2.8456      7.005   301.0497 1.2365e-01     8.0239      5.249      7.614    11.6815   999.5772 0.0000e+00
      5.359      0.046     6.5347     86.103     41.642  30.551703     2.8731      7.005   301.0897 1.2368e-01     7.8914      5.252      7.618    11.6815   999.5772 0.0000e+00
      5.369      0.046     6.5367     86.143     41.610  30.527466     2.8850      7.006   300.6503 1.2374e-01     7.8719      5.265      7.636    11.6815   999.5772 0.0000e+00
      5.382      0.049     6.5367     86.167     41.609  30.526218     2.8851      7.007   300.2107 1.2374e-01     7.8534      5.279      7.656    11.6813   999.5773 0.0000e+00
      5.397      0.054     6.5360     86.189     41.624  30.536610     2.7879      7.008   299.9903 1.2366e-01     7.8967      5.293      7.677    11.6813   999.5774 0.0000e+00
      5.412      0.058     6.5396     86.210     41.610  30.526206     2.6108      7.008   299.8782 1.2360e-01     8.0023      5.308      7.699    11.6808   999.5775 0.0000e+00
      5.427      0.060     6.5440     86.230     41.611  30.527340     2.5217      7.008   299.8879 1.2370e-01     8.0813      5.322      7.719    11.6801   999.5776 0.0000e+00
      5.442      0.062     6.5444     86.256     41.642  30.550320     2.5250      7.009   300.3650 1.2383e-01     8.0992      5.337      7.740    11.6794   999.5778 0.0000e+00
      5.458      0.064     6.5467     86.280     41.642  30.550225     2.5550      7.009   301.0020 1.2380e-01     8.1526      5.353      7.764    11.6790   999.5779 0.0000e+00
      5.475      0.064     6.5484     86.292     41.609  30.526196     2.6072      7.008   301.0502 1.2371e-01     8.2356      5.369      7.787    11.6788   999.5780 0.0000e+00
      5.493      0.064     6.5494     86.301     41.592  30.513609     2.6453      7.007   300.6029 1.2373e-01     8.2828      5.387      7.813    11.6787   999.5781 0.0000e+00
      5.510      0.063     6.5518     86.321     41.607  30.524947     2.6601      7.008   300.0680 1.2382e-01     8.2976      5.404      7.838    11.6788   999.5782 0.0000e+00
      5.526      0.061     6.5539     86.344     41.623  30.536372     2.6826      7.008   299.9180 1.2385e-01     8.1848      5.419      7.859    11.6791   999.5782 0.0000e+00
      5.542      0.056     6.5548     86.351     41.607  30.524833     2.7254      7.008   300.8541 1.2380e-01     7.9686      5.435      7.882    11.6793   999.5783 0.0000e+00
      5.557      0.052     6.5545     86.356     41.590  30.512350     2.7533      7.007   302.5240 1.2379e-01     7.8459      5.451      7.906    11.6796   999.5783 0.0000e+00
      5.569      0.048     6.5561     86.376     41.591  30.512350     2.7678      7.007   303.1581 1.2379e-01     7.8484      5.463      7.924    11.6798   999.5783 0.0000e+00
      5.578      0.045     6.5593     86.416     41.608  30.524833     2.8406      7.008   302.5856 1.2373e-01     7.8679      5.471      7.934    11.6796   999.5784 0.0000e+00
      5.588      0.044     6.5586     86.458     41.624  30.536371     2.9576      7.009   302.1411 1.2370e-01     7.8524      5.479      7.946    11.6794   999.5784 0.0000e+00
      5.599      0.044     6.5590     86.458     41.608  30.524936     3.0123      7.008   301.8269 1.2378e-01     7.8248      5.491      7.963    11.6793   999.5785 0.0000e+00
      5.611      0.046     6.5602     86.419     41.592  30.513494     2.9991      7.008   301.1959 1.2386e-01     7.8293      5.503      7.981    11.6791   999.5786 0.0000e+00
      5.621      0.048     6.5632     86.374     41.608  30.524937     2.8930      7.007   301.4807 1.2383e-01     7.9061      5.512      7.994    11.6788   999.5787 0.0000e+00
      5.633      0.048     6.5691     86.334     41.623  30.536380     2.7085      7.006   302.9482 1.2381e-01     8.0322      5.523      8.012    11.6787   999.5788 0.0000e+00
      5.648      0.048     6.5682     86.290     41.607  30.524938     2.6075      7.006   303.7954 1.2391e-01     8.1095      5.539      8.034    11.6789   999.5788 0.0000e+00
      5.663      0.048     6.5638     86.235     41.592  30.513496     2.5907      7.005   303.8088 1.2393e-01     8.1200      5.555      8.057    11.6792   999.5788 0.0000e+00
      5.674      0.049     6.5605     86.177     41.608  30.524949     2.5836      7.005   303.4538 1.2381e-01     8.1255      5.565      8.072    11.6796   999.5789 0.0000e+00
      5.683      0.049     6.5575     86.143     41.624  30.536496     2.6597      7.005   302.9451 1.2370e-01     8.1097      5.571      8.079    11.6797   999.5789 0.0000e+00
      5.695      0.048     6.5547     86.141     41.610  30.526197     2.8262      7.004   302.8205 1.2367e-01     8.0608      5.583      8.097    11.6796   999.5789 0.0000e+00
      5.710      0.048     6.5503     86.147     41.612  30.527340     2.9321      7.004   303.0650 1.2373e-01     8.0263      5.601      8.123    11.6795   999.5790 0.0000e+00
      5.723      0.048     6.5448     86.156     41.642  30.550321     2.9429      7.004   303.4073 1.2382e-01     8.0526      5.614      8.143    11.6789   999.5791 0.0000e+00
      5.735      0.048     6.5421     86.189     41.642  30.550226     2.8869      7.004   303.5176 1.2379e-01     8.1824      5.623      8.155    11.6785   999.5793 0.0000e+00
      5.747      0.046     6.5428     86.221     41.609  30.526197     2.7841      7.004   303.5378 1.2374e-01     8.3502      5.635      8.173    11.6782   999.5793 0.0000e+00
      5.760      0.045     6.5442     86.217     41.592  30.513611     2.7141      7.004   303.7376 1.2374e-01     8.4436      5.649      8.194    11.6783   999.5794 0.0000e+00
      5.770      0.047     6.5427     86.203     41.607  30.524958     2.6912      7.004   303.1804 1.2375e-01     8.4596      5.659      8.208    11.6786   999.5794 0.0000e+00
      5.780      0.051     6.5465     86.194     41.622  30.536487     2.7065      7.004   301.9632 1.2372e-01     8.4444      5.666      8.219    11.6791   999.5794 0.0000e+00
      5.790      0.056     6.5510     86.187     41.608  30.526093     2.7517      7.004   301.5816 1.2373e-01     8.4240      5.677      8.234    11.6797   999.5794 0.0000e+00
      5.805      0.061     6.5482     86.191     41.608  30.526197     2.7692      7.004   301.7496 1.2378e-01     8.3773      5.692      8.255    11.6800   999.5794 0.0000e+00
      5.823      0.065     6.5473     86.197     41.624  30.537744     2.7535      7.003   302.1021 1.2383e-01     8.3052      5.710      8.281    11.6801   999.5795 0.0000e+00
      5.843      0.067     6.5472     86.204     41.625  30.538792     2.7530      7.003   302.8324 1.2383e-01     8.2729      5.731      8.312    11.6803   999.5796 0.0000e+00
      5.863      0.067     6.5456     86.228     41.626  30.538868     2.7631      7.002   303.1794 1.2378e-01     8.2814      5.751      8.341    11.6802   999.5797 0.0000e+00
      5.881      0.063     6.5467     86.255     41.626  30.538669     2.7633      7.001   302.1686 1.2373e-01     8.2773      5.767      8.365    11.6801   999.5797 0.0000e+00
      5.896      0.057     6.5472     86.264     41.624  30.536381     2.7637      7.002   300.4191 1.2373e-01     8.2570      5.783      8.388    11.6802   999.5798 0.0000e+00
      5.911      0.050     6.5467     86.252     41.589  30.511209     2.8109      7.003   299.7504 1.2373e-01     8.2649      5.799      8.409    11.6803   999.5799 0.0000e+00
      5.921      0.045     6.5493     86.214     41.558  30.488134     2.9007      7.003   300.1932 1.2375e-01     8.2744      5.807      8.422    11.6797   999.5800 0.0000e+00
      5.929      0.041     6.5524     86.171     41.590  30.511209     2.9482      7.003   300.8686 1.2375e-01     8.2399      5.814      8.432    11.6792   999.5801 0.0000e+00
      5.939      0.041     6.5526     86.140     41.625  30.536383     2.9515      7.003   301.2048 1.2373e-01     8.2416      5.824      8.447    11.6787   999.5802 0.0000e+00
      5.948      0.044     6.5524     86.095     41.629  30.538680     2.9575      7.002   300.9023 1.2372e-01     8.2624      5.834      8.461    11.6784   999.5802 0.0000e+00
      5.957      0.048     6.5493     86.047     41.629  30.538983     3.0296      7.000   300.2231 1.2373e-01     8.2299      5.841      8.471    11.6782   999.5803 0.0000e+00
      5.969      0.050     6.5440     86.021     41.630  30.540042     3.1648      7.000   299.7038 1.2373e-01     8.1753      5.851      8.485    11.6777   999.5804 0.0000e+00
      5.986      0.049     6.5447     85.994     41.645  30.551486     3.2395      6.999   299.6133 1.2373e-01     8.0938      5.870      8.513    11.6767   999.5806 0.0000e+00
      6.005      0.046     6.5400     85.953     41.643  30.550437     3.2305      6.998   299.8183 1.2370e-01     7.9996      5.892      8.546    11.6766   999.5807 0.0000e+00
      6.019      0.042     6.5349     85.925     41.611  30.527362     3.0641      6.998   300.1169 1.2367e-01     7.8884      5.907      8.566    11.6771   999.5808 0.0000e+00
      6.024      0.036     6.5344     85.939     41.609  30.526312     2.7619      6.998   300.3842 1.2370e-01     7.7320      5.908      8.569    11.6778   999.5807 0.0000e+00
      6.028      0.031     6.5325     85.969     41.625  30.537745     2.6026      6.999   300.5550 1.2371e-01     7.6165      5.910      8.571    11.6783   999.5806 0.0000e+00
      6.035      0.030     6.5287     85.994     41.627  30.538680     2.6037      7.000   300.4618 1.2371e-01     7.6060      5.919      8.584    11.6788   999.5806 0.0000e+00
      6.043      0.033     6.5245     86.015     41.625  30.537621     2.6891      7.000   300.2896 1.2368e-01     7.7346      5.927      8.597    11.6793   999.5806 0.0000e+00
      6.049      0.037     6.5278     86.040     41.607  30.524939     2.8464      6.999   300.1079 1.2371e-01     7.9593      5.931      8.602    11.6792   999.5806 0.0000e+00
      6.058      0.039     6.5300     86.074     41.591  30.512249     2.9358      6.998   299.8994 1.2383e-01     8.0945      5.938      8.613    11.6788   999.5807 0.0000e+00
      6.073      0.039     6.5321     86.120     41.591  30.511105     2.9552      6.998   300.6084 1.2384e-01     8.1244      5.957      8.640    11.6790   999.5808 0.0000e+00
      6.088      0.039     6.5331     86.170     41.591  30.511104     3.0033      6.999   301.9690 1.2378e-01     8.0914      5.974      8.664    11.6795   999.5808 0.0000e+00
      6.097      0.039     6.5350     86.202     41.592  30.512239     3.0758      6.999   302.4116 1.2379e-01     7.9577      5.980      8.672    11.6792   999.5808 0.0000e+00
      6.102      0.038     6.5378     86.247     41.607  30.524824     3.1207      6.999   302.1736 1.2374e-01     7.8522      5.984      8.678    11.6779   999.5810 0.0000e+00
      6.111      0.037     6.5406     86.317     41.622  30.536361     3.1212      6.999   301.7595 1.2368e-01     7.8639      5.993      8.690    11.6773   999.5811 0.0000e+00
      6.121      0.040     6.5471     86.359     41.606  30.524824     3.0555      6.999   301.1902 1.2370e-01     7.9351      6.004      8.707    11.6774   999.5812 0.0000e+00
      6.131      0.045     6.5468     86.361     41.590  30.512238     2.9505      6.999   300.9690 1.2371e-01     8.0250      6.013      8.721    11.6781   999.5811 0.0000e+00
      6.141      0.051     6.5496     86.356     41.589  30.511094     2.9010      6.999   301.6657 1.2372e-01     8.0657      6.020      8.732    11.6792   999.5810 0.0000e+00
      6.154      0.055     6.5574     86.347     41.588  30.510990     2.8980      6.999   302.9896 1.2377e-01     8.0665      6.033      8.750    11.6802   999.5810 0.0000e+00
      6.171      0.058     6.5608     86.297     41.588  30.510981     2.8980      6.999   303.7257 1.2378e-01     8.1001      6.051      8.776    11.6801   999.5811 0.0000e+00
      6.190      0.058     6.5597     86.221     41.588  30.510989     2.9786      6.999   303.5971 1.2373e-01     8.1775      6.071      8.806    11.6792   999.5813 0.0000e+00
      6.207      0.058     6.5586     86.175     41.588  30.511094     3.1436      6.998   303.1543 1.2372e-01     8.2820      6.089      8.832    11.6791   999.5814 0.0000e+00
      6.221      0.056     6.5605     86.155     41.589  30.512239     3.2462      6.997   302.9327 1.2374e-01     8.3465      6.102      8.850    11.6795   999.5814 0.0000e+00
      6.231      0.053     6.5559     86.132     41.606  30.524835     3.2654      6.997   303.0684 1.2377e-01     8.3345      6.111      8.863    11.6797   999.5814 0.0000e+00
      6.243      0.051     6.5473     86.122     41.623  30.536487     3.2374      6.997   303.4187 1.2378e-01     8.2354      6.122      8.880    11.6800   999.5814 0.0000e+00
      6.258      0.049     6.5444     86.128     41.609  30.526208     3.1761      6.997   303.7271 1.2374e-01     8.0992      6.138      8.902    11.6803   999.5815 0.0000e+00
      6.272      0.049     6.5446     86.133     41.611  30.527467     3.1395      6.997   303.7850 1.2364e-01     8.0317      6.152      8.922    11.6804   999.5815 0.0000e+00
      6.284      0.047     6.5416     86.150     41.644  30.551704     3.1336      6.998   303.7747 1.2361e-01     8.0421      6.161      8.937    11.6802   999.5816 0.0000e+00
      6.295      0.044     6.5405     86.162     41.663  30.565435     3.1744      6.998   303.7747 1.2370e-01     8.1262      6.173      8.954    11.6799   999.5817 0.0000e+00
      6.307      0.041     6.5429     86.151     41.665  30.566570     3.2592      6.997   303.2687 1.2380e-01     8.2293      6.186      8.973    11.6792   999.5818 0.0000e+00
      6.318      0.039     6.5415     86.140     41.663  30.565425     3.3092      6.997   302.6471 1.2375e-01     8.2723      6.197      8.988    11.6786   999.5820 0.0000e+00
      6.326      0.039     6.5439     86.133     41.644  30.551591     3.3201      6.997   302.7977 1.2364e-01     8.2857      6.203      8.998    11.6784   999.5820 0.0000e+00
      6.333      0.040     6.5462     86.116     41.609  30.526220     3.3993      6.997   303.0246 1.2363e-01     8.2937      6.210      9.006    11.6784   999.5820 0.0000e+00
      6.342      0.043     6.5432     86.086     41.591  30.512489     3.5387      6.997   302.8952 1.2374e-01     8.2704      6.219      9.020    11.6787   999.5821 0.0000e+00
      6.354      0.047     6.5427     86.034     41.591  30.512479     3.6008      6.997   302.8684 1.2384e-01     8.2655      6.231      9.037    11.6789   999.5821 0.0000e+00
      6.369      0.052     6.5428     85.982     41.610  30.526095     3.5868      6.998   302.6139 1.2381e-01     8.2679      6.246      9.058    11.6789   999.5822 0.0000e+00
      6.383      0.057     6.5412     85.970     41.644  30.550208     3.4123      6.998   301.9699 1.2379e-01     8.1346      6.259      9.078    11.6793   999.5822 0.0000e+00
      6.398      0.060     6.5394     85.961     41.644  30.550207     3.0861      6.997   301.7072 1.2375e-01     7.9331      6.273      9.098    11.6796   999.5822 0.0000e+00
      6.414      0.061     6.5355     85.946     41.610  30.526083     2.9035      6.996   301.7600 1.2369e-01     7.8306      6.290      9.123    11.6792   999.5823 0.0000e+00
      6.432      0.060     6.5285     85.931     41.590  30.512352     2.8771      6.996   301.7478 1.2369e-01     7.8133      6.308      9.148    11.6783   999.5825 0.0000e+00
      6.448      0.058     6.5307     85.886     41.588  30.511095     2.8707      6.996   301.9907 1.2369e-01     7.8213      6.325      9.173    11.6776   999.5827 0.0000e+00
      6.462      0.056     6.5305     85.854     41.588  30.510878     2.8607      6.997   302.4592 1.2375e-01     7.8943      6.338      9.193    11.6777   999.5827 0.0000e+00
      6.475      0.056     6.5264     85.863     41.587  30.509734     2.8435      6.997   302.4225 1.2391e-01     8.0413      6.349      9.210    11.6785   999.5827 0.0000e+00
      6.486      0.057     6.5297     85.882     41.571  30.497261     2.8359      6.997   301.8910 1.2394e-01     8.1231      6.360      9.224    11.6794   999.5826 0.0000e+00
      6.499      0.057     6.5223     85.902     41.559  30.486982     2.8385      6.996   301.6250 1.2386e-01     8.0969      6.373      9.243    11.6799   999.5826 0.0000e+00
      6.516      0.056     6.5193     85.945     41.595  30.512363     2.8834      6.994   301.6159 1.2378e-01     7.9871      6.390      9.268    11.6802   999.5827 0.0000e+00
      6.536      0.051     6.5222     86.016     41.648  30.550323     2.9625      6.994   301.6947 1.2370e-01     7.8106      6.409      9.296    11.6795   999.5829 0.0000e+00
      6.553      0.044     6.5234     86.072     41.670  30.565207     2.9974      6.995   301.8042 1.2366e-01     7.6678      6.428      9.323    11.6778   999.5831 0.0000e+00
      6.563      0.036     6.5250     86.105     41.671  30.565415     2.9936      6.995   301.8208 1.2361e-01     7.6033      6.439      9.339    11.6762   999.5833 0.0000e+00
      6.567      0.030     6.5266     86.115     41.654  30.552839     2.9337      6.995   301.8089 1.2360e-01     7.5559      6.441      9.342    11.6751   999.5835 0.0000e+00
      6.569      0.027     6.5356     86.091     41.635  30.540055     2.8195      6.995   301.8325 1.2370e-01     7.4876      6.441      9.342    11.6741   999.5836 0.0000e+00
      6.572      0.027     6.5390     86.034     41.630  30.537759     2.7657      6.995   301.8483 1.2381e-01     7.4328      6.443      9.346    11.6730   999.5838 0.0000e+00
      6.579      0.032     6.5416     85.948     41.611  30.525076     2.7598      6.995   301.8275 1.2381e-01     7.4185      6.450      9.354    11.6722   999.5839 0.0000e+00
      6.589      0.038     6.5434     85.864     41.595  30.513624     2.7045      6.995   301.9252 1.2371e-01     7.4788      6.460      9.370    11.6720   999.5839 0.0000e+00
      6.601      0.044     6.5406     85.832     41.611  30.526200     2.6177      6.995   302.2549 1.2369e-01     7.5712      6.474      9.389    11.6726   999.5839 0.0000e+00
      6.615      0.047     6.5370     85.843     41.643  30.550228     2.5778      6.995   302.5444 1.2379e-01     7.6180      6.487      9.408    11.6740   999.5838 0.0000e+00
      6.629      0.047     6.5287     85.801     41.642  30.550323     2.5768      6.995   302.5859 1.2385e-01     7.6525      6.501      9.428    11.6759   999.5837 0.0000e+00
      6.641      0.046     6.5209     85.709     41.610  30.527343     2.5796      6.994   302.5845 1.2378e-01     7.6600      6.514      9.448    11.6766   999.5837 0.0000e+00
      6.651      0.044     6.5172     85.673     41.608  30.526208     2.5856      6.994   302.6143 1.2368e-01     7.6430      6.524      9.462    11.6767   999.5837 0.0000e+00
      6.661      0.042     6.5232     85.709     41.622  30.536602     2.5884      6.994   302.6016 1.2367e-01     7.6433      6.531      9.472    11.6783   999.5836 0.0000e+00
      6.671      0.040     6.5198     85.789     41.607  30.526105     2.5883      6.994   302.6036 1.2372e-01     7.6312      6.542      9.488    11.6796   999.5835 0.0000e+00
      6.683      0.040     6.5067     85.878     41.607  30.526200     2.5925      6.995   302.6386 1.2374e-01     7.6270      6.554      9.506    11.6802   999.5835 0.0000e+00
      6.693      0.042     6.5055     85.952     41.623  30.537746     2.6749      6.996   302.6800 1.2375e-01     7.7245      6.564      9.521    11.6807   999.5834 0.0000e+00
      6.701      0.046     6.5087     86.051     41.624  30.538796     2.8380      6.996   302.6741 1.2375e-01     7.9241      6.572      9.531    11.6810   999.5835 0.0000e+00
      6.710      0.050     6.5155     86.183     41.624  30.538891     2.9352      6.996   302.6532 1.2375e-01     8.0746      6.579      9.542    11.6812   999.5835 0.0000e+00
      6.724      0.054     6.5239     86.250     41.623  30.538899     2.9482      6.995   302.7707 1.2376e-01     8.1028      6.593      9.562    11.6813   999.5835 0.0000e+00
      6.742      0.056     6.5277     86.222     41.623  30.538891     2.9599      6.995   302.9776 1.2376e-01     8.0684      6.612      9.591    11.6812   999.5837 0.0000e+00
      6.760      0.058     6.5331     86.184     41.623  30.538796     2.9818      6.996   303.0036 1.2376e-01     8.0523      6.629      9.615    11.6814   999.5837 0.0000e+00
      6.775      0.061     6.5485     86.170     41.621  30.537746     2.9953      6.996   302.8272 1.2374e-01     8.0712      6.645      9.637    11.6817   999.5838 0.0000e+00
      6.788      0.063     6.5547     86.161     41.606  30.526201     3.0018      6.994   302.7380 1.2367e-01     8.0680      6.658      9.656    11.6819   999.5838 0.0000e+00
      6.801      0.066     6.5478     86.158     41.606  30.526106     3.0528      6.992   302.7855 1.2363e-01     8.0457      6.668      9.671    11.6821   999.5838 0.0000e+00
      6.817      0.069     6.5450     86.174     41.621  30.536603     3.1433      6.991   302.8848 1.2368e-01     8.0645      6.682      9.693    11.6822   999.5838 0.0000e+00
      6.837      0.072     6.5449     86.210     41.607  30.526199     3.1856      6.991   302.9060 1.2373e-01     8.1314      6.704      9.724    11.6821   999.5840 0.0000e+00
      6.859      0.073     6.5439     86.287     41.608  30.527230     3.1919      6.991   302.8697 1.2373e-01     8.1649      6.727      9.757    11.6820   999.5841 0.0000e+00
      6.880      0.073     6.5429     86.394     41.638  30.549065     3.2881      6.991   302.9627 1.2375e-01     8.1756      6.748      9.786    11.6819   999.5842 0.0000e+00
      6.898      0.070     6.5450     86.474     41.620  30.536385     3.4565      6.990   302.9981 1.2376e-01     8.2285      6.765      9.812    11.6816   999.5843 0.0000e+00
      6.916      0.064     6.5466     86.489     41.572  30.500828     3.5370      6.990   302.8676 1.2376e-01     8.2790      6.782      9.837    11.6814   999.5844 0.0000e+00
      6.932      0.057     6.5523     86.464     41.570  30.499882     3.5422      6.990   302.6745 1.2376e-01     8.3278      6.799      9.861    11.6813   999.5845 0.0000e+00
      6.947      0.051     6.5629     86.425     41.604  30.524951     3.5542      6.990   302.5556 1.2374e-01     8.2617      6.814      9.882    11.6815   999.5846 0.0000e+00
      6.957      0.046     6.5702     86.374     41.639  30.550115     3.5598      6.990   302.8933 1.2371e-01     8.0366      6.823      9.896    11.6818   999.5846 0.0000e+00
      6.967      0.041     6.5699     86.323     41.639  30.550314     3.5585      6.991   303.4881 1.2369e-01     7.8675      6.831      9.908    11.6820   999.5846 0.0000e+00
      6.977      0.038     6.5671     86.283     41.608  30.527353     3.5553      6.991   303.7250 1.2369e-01     7.8238      6.842      9.924    11.6819   999.5847 0.0000e+00
      6.986      0.038     6.5648     86.249     41.607  30.526313     3.5303      6.991   303.6921 1.2374e-01     7.8354      6.851      9.937    11.6818   999.5847 0.0000e+00
      6.994      0.038     6.5601     86.221     41.623  30.537747     3.2740      6.991   303.4347 1.2376e-01     7.8768      6.858      9.947    11.6819   999.5847 0.0000e+00
      7.004      0.039     6.5560     86.198     41.625  30.538683     2.8056      6.991   303.0217 1.2377e-01     7.9642      6.867      9.959    11.6816   999.5848 0.0000e+00
      7.016      0.041     6.5534     86.186     41.623  30.537635     2.5572      6.991   302.8292 1.2377e-01     8.0399      6.881      9.980    11.6815   999.5849 0.0000e+00
      7.026      0.046     6.5504     86.186     41.606  30.525066     2.5506      6.991   303.2575 1.2370e-01     8.0708      6.892      9.997    11.6812   999.5849 0.0000e+00
      7.035      0.050     6.5488     86.188     41.590  30.513634     2.6656      6.990   304.1566 1.2369e-01     8.1414      6.898     10.005    11.6810   999.5850 0.0000e+00
      7.046      0.053     6.5466     86.197     41.607  30.526315     2.8802      6.990   304.6656 1.2374e-01     8.2378      6.907     10.018    11.6809   999.5851 0.0000e+00
      7.063      0.054     6.5457     86.221     41.642  30.551489     2.9961      6.990   304.6792 1.2378e-01     8.2859      6.925     10.044    11.6807   999.5852 0.0000e+00
      7.082      0.056     6.5466     86.282     41.659  30.564179     3.0001      6.989   304.5798 1.2376e-01     8.2973      6.947     10.076    11.6806   999.5853 0.0000e+00
      7.097      0.060     6.5456     86.338     41.644  30.552841     2.9111      6.988   304.4965 1.2373e-01     8.2763      6.962     10.098    11.6809   999.5853 0.0000e+00
      7.108      0.062     6.5473     86.335     41.628  30.541304     2.7444      6.988   304.6182 1.2375e-01     8.2617      6.970     10.109    11.6811   999.5853 0.0000e+00
      7.121      0.062     6.5471     86.310     41.643  30.551604     2.6582      6.987   305.0193 1.2380e-01     8.2517      6.981     10.126    11.6810   999.5854 0.0000e+00
      7.140      0.061     6.5528     86.287     41.642  30.550461     2.6488      6.987   305.3888 1.2386e-01     8.2216      7.001     10.155    11.6808   999.5855 0.0000e+00
      7.160      0.061     6.5610     86.262     41.611  30.527480     2.6747      6.986   305.5568 1.2385e-01     8.1928      7.023     10.186    11.6805   999.5857 0.0000e+00
      7.178      0.061     6.5572     86.237     41.611  30.527575     2.7372      6.986   305.5883 1.2371e-01     8.1328      7.041     10.212    11.6803   999.5858 0.0000e+00
      7.190      0.058     6.5555     86.202     41.643  30.551603     2.7711      6.987   305.5116 1.2365e-01     8.0866      7.052     10.227    11.6801   999.5858 0.0000e+00
      7.202      0.053     6.5544     86.183     41.660  30.564180     2.7635      6.987   305.1465 1.2374e-01     8.0925      7.061     10.241    11.6797   999.5860 0.0000e+00
      7.216      0.049     6.5514     86.195     41.645  30.552728     2.7310      6.987   304.7010 1.2381e-01     8.0407      7.076     10.263    11.6795   999.5860 0.0000e+00
      7.230      0.048     6.5512     86.185     41.627  30.540055     2.7000      6.987   304.6849 1.2381e-01     7.9190      7.093     10.287    11.6796   999.5861 0.0000e+00
      7.241      0.048     6.5469     86.134     41.624  30.537862     2.6922      6.987   304.7799 1.2377e-01     7.8325      7.103     10.302    11.6796   999.5861 0.0000e+00
      7.251      0.048     6.5445     86.110     41.609  30.526211     2.6886      6.987   304.9896 1.2372e-01     7.7824      7.109     10.310    11.6796   999.5862 0.0000e+00
      7.262      0.047     6.5476     86.140     41.609  30.526097     2.6911      6.987   305.4134 1.2369e-01     7.7719      7.120     10.326    11.6799   999.5862 0.0000e+00
      7.276      0.047     6.5487     86.196     41.624  30.536480     2.8270      6.985   304.9129 1.2371e-01     7.8041      7.136     10.350    11.6798   999.5863 0.0000e+00
      7.291      0.048     6.5406     86.249     41.609  30.524838     3.0920      6.984   303.6705 1.2373e-01     7.8106      7.152     10.373    11.6796   999.5864 0.0000e+00
      7.302      0.049     6.5386     86.286     41.591  30.512253     3.2424      6.986   303.2120 1.2372e-01     7.7851      7.162     10.387    11.6792   999.5865 0.0000e+00
      7.311      0.048     6.5427     86.331     41.589  30.511222     3.2489      6.987   303.2407 1.2370e-01     7.7903      7.168     10.396    11.6784   999.5866 0.0000e+00
      7.325      0.046     6.5469     86.376     41.589  30.512376     3.1959      6.987   303.5009 1.2371e-01     7.8080      7.183     10.416    11.6780   999.5867 0.0000e+00
      7.340      0.046     6.5528     86.403     41.607  30.526201     3.1140      6.986   304.2072 1.2375e-01     7.8026      7.200     10.442    11.6781   999.5868 0.0000e+00
      7.351      0.047     6.5526     86.401     41.641  30.551469     3.0739      6.986   304.5534 1.2377e-01     7.8235      7.210     10.458    11.6787   999.5867 0.0000e+00
      7.360      0.048     6.5578     86.365     41.658  30.564064     3.0579      6.986   303.9018 1.2374e-01     7.8641      7.217     10.467    11.6797   999.5867 0.0000e+00
      7.370      0.048     6.5610     86.335     41.641  30.551583     2.9720      6.986   302.6946 1.2369e-01     7.9326      7.225     10.479    11.6807   999.5866 0.0000e+00
      7.385      0.048     6.5629     86.315     41.608  30.527470     2.8332      6.986   302.0031 1.2367e-01     8.0294      7.241     10.503    11.6812   999.5866 0.0000e+00
      7.400      0.049     6.5641     86.277     41.607  30.526336     2.7664      6.986   301.9936 1.2370e-01     8.0846      7.259     10.527    11.6814   999.5867 0.0000e+00
      7.412      0.051     6.5588     86.233     41.623  30.537874     2.7803      6.986   302.3221 1.2367e-01     8.1081      7.270     10.543    11.6815   999.5867 0.0000e+00
      7.423      0.052     6.5568     86.211     41.627  30.540058     2.8791      6.986   302.5333 1.2363e-01     8.0181      7.278     10.557    11.6815   999.5868 0.0000e+00
      7.435      0.051     6.5567     86.213     41.644  30.552739     3.0428      6.986   302.5693 1.2366e-01     7.7833      7.290     10.573    11.6815   999.5868 0.0000e+00
      7.450      0.049     6.5533     86.238     41.661  30.564284     3.1290      6.985   302.5845 1.2370e-01     7.6294      7.305     10.595    11.6815   999.5869 0.0000e+00
      7.465      0.048     6.5484     86.273     41.646  30.552739     3.1330      6.985   302.3730 1.2376e-01     7.6311      7.321     10.619    11.6810   999.5870 0.0000e+00
      7.477      0.047     6.5479     86.308     41.630  30.540058     3.0820      6.985   302.2488 1.2381e-01     7.8036      7.335     10.639    11.6805   999.5871 0.0000e+00
      7.487      0.045     6.5472     86.338     41.627  30.537873     2.9892      6.986   302.2021 1.2376e-01     8.1096      7.342     10.649    11.6800   999.5872 0.0000e+00
      7.496      0.042     6.5499     86.338     41.612  30.526326     2.9475      6.986   302.0664 1.2368e-01     8.2840      7.349     10.659    11.6794   999.5873 0.0000e+00
      7.509      0.041     6.5534     86.313     41.613  30.527356     2.9587      6.985   302.5866 1.2364e-01     8.3058      7.364     10.680    11.6786   999.5875 0.0000e+00
      7.521      0.042     6.5551     86.273     41.644  30.550326     2.9687      6.985   303.5871 1.2367e-01     8.3083      7.378     10.701    11.6781   999.5876 0.0000e+00
      7.529      0.043     6.5599     86.238     41.644  30.550231     2.9656      6.986   303.9261 1.2368e-01     8.3788      7.384     10.709    11.6775   999.5877 0.0000e+00
      7.537      0.043     6.5585     86.238     41.611  30.526202     2.9554      6.987   303.8451 1.2367e-01     8.5689      7.389     10.718    11.6772   999.5877 0.0000e+00
      7.550      0.043     6.5567     86.256     41.593  30.513616     2.9487      6.987   303.5541 1.2371e-01     8.7050      7.403     10.737    11.6776   999.5878 0.0000e+00
      7.564      0.044     6.5537     86.271     41.608  30.524964     2.9542      6.987   303.0755 1.2374e-01     8.7141      7.418     10.760    11.6776   999.5879 0.0000e+00
      7.576      0.047     6.5485     86.264     41.623  30.536502     3.0046      6.986   303.7360 1.2376e-01     8.6460      7.429     10.776    11.6774   999.5880 0.0000e+00
      7.586      0.048     6.5506     86.239     41.609  30.526202     3.0819      6.986   305.2595 1.2376e-01     8.5374      7.439     10.790    11.6773   999.5880 0.0000e+00
      7.597      0.047     6.5518     86.234     41.610  30.527346     3.1174      6.986   305.9228 1.2370e-01     8.5151      7.450     10.806    11.6777   999.5880 0.0000e+00
      7.610      0.045     6.5536     86.259     41.641  30.550336     3.1212      6.986   305.9047 1.2368e-01     8.5397      7.462     10.823    11.6788   999.5879 0.0000e+00
      7.623      0.043     6.5534     86.293     41.641  30.550345     3.0667      6.986   305.6433 1.2372e-01     8.3762      7.476     10.843    11.6795   999.5879 0.0000e+00
      7.635      0.043     6.5492     86.336     41.610  30.527460     2.9532      6.986   305.0853 1.2377e-01     8.0466      7.489     10.862    11.6796   999.5880 0.0000e+00
      7.643      0.043     6.5490     86.401     41.610  30.527460     2.8926      6.986   304.7504 1.2383e-01     7.8641      7.496     10.871    11.6797   999.5880 0.0000e+00
      7.652      0.043     6.5518     86.487     41.640  30.550336     2.8802      6.986   304.8636 1.2384e-01     7.8746      7.502     10.881    11.6799   999.5880 0.0000e+00
      7.663      0.043     6.5544     86.567     41.640  30.550233     2.8647      6.986   305.3360 1.2382e-01     8.0414      7.514     10.898    11.6799   999.5881 0.0000e+00
      7.676      0.043     6.5567     86.590     41.608  30.526213     2.8615      6.987   305.7304 1.2382e-01     8.3407      7.528     10.918    11.6801   999.5881 0.0000e+00
      7.688      0.042     6.5618     86.557     41.591  30.513739     2.8669      6.987   305.7607 1.2379e-01     8.5104      7.539     10.935    11.6807   999.5881 0.0000e+00
      7.699      0.042     6.5687     86.506     41.608  30.526317     2.8696      6.987   305.7880 1.2375e-01     8.4878      7.550     10.951    11.6808   999.5881 0.0000e+00
      7.710      0.042     6.5770     86.430     41.642  30.551377     2.8764      6.987   305.8878 1.2372e-01     8.3300      7.562     10.969    11.6806   999.5882 0.0000e+00
      7.718      0.042     6.5792     86.355     41.658  30.562922     2.8887      6.986   305.4196 1.2367e-01     8.1420      7.569     10.978    11.6806   999.5882 0.0000e+00
      7.726      0.043     6.5735     86.305     41.625  30.538998     2.8883      6.985   304.6011 1.2365e-01     8.0831      7.574     10.985    11.6808   999.5882 0.0000e+00
      7.738      0.045     6.5721     86.257     41.594  30.515934     2.8798      6.985   304.4221 1.2362e-01     8.0766      7.588     11.006    11.6808   999.5883 0.0000e+00
      7.753      0.049     6.5648     86.231     41.624  30.537874     2.8905      6.985   304.8050 1.2360e-01     8.0634      7.606     11.030    11.6808   999.5884 0.0000e+00
      7.765      0.054     6.5574     86.245     41.641  30.550451     2.9654      6.984   305.2722 1.2367e-01     8.0544      7.615     11.044    11.6808   999.5884 0.0000e+00
      7.777      0.058     6.5560     86.280     41.628  30.541089     3.0914      6.982   305.4251 1.2373e-01     8.0345      7.624     11.057    11.6809   999.5885 0.0000e+00
      7.792      0.060     6.5506     86.321     41.642  30.551585     3.1579      6.982   304.6744 1.2376e-01     8.0200      7.640     11.081    11.6808   999.5885 0.0000e+00
      7.810      0.060     6.5482     86.351     41.641  30.550450     3.1619      6.983   303.3372 1.2380e-01     8.0420      7.660     11.110    11.6806   999.5887 0.0000e+00
      7.828      0.059     6.5501     86.361     41.609  30.527358     3.1747      6.984   302.7651 1.2378e-01     8.1369      7.678     11.136    11.6807   999.5888 0.0000e+00
      7.844      0.055     6.5530     86.369     41.607  30.526204     3.1910      6.984   303.0918 1.2376e-01     8.2491      7.693     11.157    11.6809   999.5888 0.0000e+00
      7.858      0.050     6.5565     86.360     41.621  30.536502     3.1940      6.983   303.4158 1.2374e-01     8.2842      7.707     11.179    11.6808   999.5889 0.0000e+00
      7.870      0.046     6.5599     86.323     41.605  30.524966     3.1860      6.983   303.7564 1.2366e-01     8.2671      7.719     11.195    11.6808   999.5889 0.0000e+00
      7.878      0.043     6.5588     86.284     41.590  30.513627     3.1115      6.983   304.1984 1.2362e-01     8.1726      7.726     11.205    11.6813   999.5889 0.0000e+00
      7.886      0.043     6.5604     86.246     41.607  30.526317     2.9771      6.983   304.0282 1.2367e-01     7.9944      7.732     11.214    11.6814   999.5889 0.0000e+00
      7.897      0.046     6.5608     86.219     41.641  30.551491     2.9053      6.983   303.2474 1.2375e-01     7.8820      7.743     11.230    11.6812   999.5890 0.0000e+00
      7.910      0.052     6.5556     86.227     41.658  30.564172     2.9019      6.982   302.7597 1.2380e-01     7.8629      7.757     11.250    11.6810   999.5891 0.0000e+00
      7.923      0.057     6.5542     86.270     41.642  30.552739     2.9447      6.982   302.7771 1.2377e-01     7.9599      7.769     11.268    11.6809   999.5891 0.0000e+00
      7.938      0.059     6.5502     86.325     41.625  30.540161     3.0237      6.982   302.9417 1.2373e-01     8.1371      7.783     11.288    11.6814   999.5891 0.0000e+00
      7.957      0.059     6.5475     86.369     41.623  30.539008     3.0593      6.982   303.0289 1.2369e-01     8.2358      7.803     11.317    11.6819   999.5892 0.0000e+00
      7.975      0.058     6.5480     86.402     41.623  30.538800     3.0548      6.981   303.2299 1.2367e-01     8.2673      7.824     11.347    11.6820   999.5893 0.0000e+00
      7.989      0.055     6.5518     86.427     41.622  30.537648     3.0389      6.981   303.5651 1.2370e-01     8.2890      7.836     11.365    11.6818   999.5894 0.0000e+00
      7.999      0.052     6.5573     86.439     41.606  30.525070     2.9969      6.981   303.6400 1.2378e-01     8.3023      7.844     11.377    11.6819   999.5894 0.0000e+00
      8.011      0.048     6.5599     86.422     41.591  30.513637     2.9630      6.981   303.5328 1.2381e-01     8.2970      7.856     11.394    11.6821   999.5894 0.0000e+00
      8.024      0.046     6.5625     86.367     41.610  30.526318     2.9582      6.981   303.3875 1.2375e-01     8.2900      7.870     11.413    11.6821   999.5895 0.0000e+00
      8.036      0.046     6.5645     86.302     41.645  30.551481     2.9565      6.980   303.2590 1.2377e-01     8.2834      7.881     11.431    11.6819   999.5896 0.0000e+00
      8.047      0.045     6.5661     86.265     41.663  30.564058     2.9077      6.980   303.5290 1.2385e-01     8.3484      7.891     11.445    11.6814   999.5897 0.0000e+00
      8.058      0.043     6.5654     86.248     41.646  30.551471     2.8192      6.980   303.9855 1.2381e-01     8.5514      7.903     11.461    11.6805   999.5898 0.0000e+00
      8.070      0.042     6.5606     86.232     41.612  30.526203     2.7788      6.980   304.0458 1.2374e-01     8.7059      7.915     11.480    11.6792   999.5900 0.0000e+00
      8.080      0.043     6.5542     86.214     41.593  30.512369     2.7838      6.980   303.9141 1.2378e-01     8.7080      7.926     11.495    11.6779   999.5902 0.0000e+00
      8.088      0.045     6.5521     86.183     41.592  30.511112     2.7936      6.980   303.7697 1.2381e-01     8.5770      7.932     11.504    11.6771   999.5904 0.0000e+00
      8.098      0.047     6.5518     86.131     41.592  30.511007     2.8109      6.980   303.5039 1.2378e-01     8.4011      7.939     11.515    11.6769   999.5904 0.0000e+00
      8.111      0.048     6.5501     86.076     41.592  30.511101     2.8283      6.980   303.4536 1.2379e-01     8.3509      7.954     11.537    11.6769   999.5905 0.0000e+00
      8.127      0.051     6.5491     86.032     41.594  30.512254     2.8300      6.980   303.6780 1.2381e-01     8.3626      7.970     11.560    11.6767   999.5906 0.0000e+00
      8.142      0.052     6.5477     85.998     41.612  30.524944     2.7965      6.980   303.8082 1.2381e-01     8.3789      7.985     11.581    11.6763   999.5907 0.0000e+00
      8.155      0.052     6.5424     85.981     41.628  30.537626     2.7437      6.980   303.8227 1.2379e-01     8.4503      7.998     11.600    11.6761   999.5908 0.0000e+00
      8.167      0.050     6.5381     85.960     41.629  30.538676     2.7125      6.980   303.8534 1.2370e-01     8.5044      8.008     11.615    11.6760   999.5908 0.0000e+00
      8.180      0.046     6.5352     85.931     41.627  30.537637     2.7229      6.980   303.8356 1.2362e-01     8.5091      8.022     11.635    11.6754   999.5910 0.0000e+00
      8.193      0.044     6.5318     85.942     41.609  30.525059     2.8523      6.980   303.6932 1.2365e-01     8.4736      8.036     11.654    11.6752   999.5910 0.0000e+00
      8.203      0.043     6.5313     85.992     41.593  30.513513     3.0714      6.980   303.5950 1.2371e-01     8.3706      8.046     11.669    11.6760   999.5910 0.0000e+00
      8.212      0.044     6.5306     86.027     41.609  30.524945     3.1871      6.981   303.5948 1.2371e-01     8.2790      8.053     11.680    11.6771   999.5909 0.0000e+00
      8.221      0.045     6.5255     86.043     41.625  30.536378     3.1846      6.981   303.4322 1.2377e-01     8.2836      8.061     11.691    11.6780   999.5909 0.0000e+00
      8.231      0.046     6.5260     86.059     41.609  30.524832     3.0761      6.981   303.0918 1.2385e-01     8.2961      8.071     11.706    11.6789   999.5908 0.0000e+00
      8.246      0.047     6.5331     86.069     41.592  30.512254     2.8809      6.981   302.8343 1.2388e-01     8.2653      8.085     11.727    11.6792   999.5908 0.0000e+00
      8.261      0.047     6.5350     86.077     41.591  30.511214     2.7668      6.981   302.8147 1.2390e-01     8.2723      8.102     11.752    11.6783   999.5910 0.0000e+00
      8.274      0.047     6.5353     86.088     41.593  30.512255     2.7540      6.981   303.0261 1.2386e-01     8.3156      8.116     11.770    11.6777   999.5912 0.0000e+00
      8.285      0.045     6.5372     86.087     41.611  30.524842     2.7607      6.981   303.2395 1.2385e-01     8.2968      8.124     11.783    11.6778   999.5912 0.0000e+00
      8.295      0.042     6.5380     86.061     41.628  30.536484     2.7517      6.981   303.1581 1.2386e-01     8.1442      8.134     11.798    11.6775   999.5912 0.0000e+00
      8.305      0.040     6.5379     86.008     41.614  30.526099     2.7238      6.981   302.9886 1.2376e-01     7.9446      8.146     11.813    11.6771   999.5913 0.0000e+00
      8.315      0.040     6.5396     85.940     41.614  30.526194     2.7090      6.981   302.8240 1.2371e-01     7.8495      8.155     11.827    11.6769   999.5914 0.0000e+00
      8.325      0.039     6.5402     85.878     41.629  30.537637     2.7215      6.981   302.5453 1.2374e-01     7.8797      8.164     11.841    11.6760   999.5916 0.0000e+00
      8.335      0.038     6.5382     85.845     41.628  30.537541     2.8398      6.981   302.7164 1.2377e-01     8.1782      8.173     11.853    11.6750   999.5917 0.0000e+00
      8.346      0.038     6.5341     85.828     41.611  30.525032     3.0555      6.981   303.3434 1.2378e-01     8.6742      8.185     11.869    11.6749   999.5918 0.0000e+00
      8.356      0.041     6.5281     85.794     41.595  30.513304     3.1790      6.980   303.6735 1.2376e-01     8.9271      8.196     11.887    11.6751   999.5918 0.0000e+00
      8.363      0.043     6.5226     85.770     41.608  30.522648     3.1980      6.980   303.6961 1.2376e-01     8.9418      8.202     11.895    11.6756   999.5918 0.0000e+00
      8.371      0.043     6.5199     85.801     41.592  30.511102     3.2671      6.979   303.5305 1.2373e-01     8.8518      8.206     11.901    11.6765   999.5917 0.0000e+00
      8.386      0.043     6.5209     85.864     41.577  30.500613     3.3997      6.978   303.1337 1.2370e-01     8.6581      8.222     11.925    11.6766   999.5918 0.0000e+00
      8.402      0.045     6.5170     85.932     41.607  30.522743     3.4750      6.978   303.0290 1.2371e-01     8.5337      8.243     11.955    11.6761   999.5919 0.0000e+00
      8.412      0.048     6.5129     86.012     41.610  30.524841     3.4834      6.978   303.3825 1.2375e-01     8.4951      8.252     11.968    11.6758   999.5920 0.0000e+00
      8.419      0.051     6.5171     86.089     41.611  30.525976     3.4489      6.977   303.7079 1.2379e-01     8.5517      8.254     11.971    11.6762   999.5920 0.0000e+00
      8.430      0.054     6.5224     86.137     41.624  30.536472     3.3708      6.977   303.8658 1.2382e-01     8.6941      8.263     11.985    11.6766   999.5919 0.0000e+00
      8.447      0.059     6.5270     86.160     41.608  30.524841     3.3190      6.975   304.0017 1.2381e-01     8.7414      8.283     12.013    11.6768   999.5921 0.0000e+00
      8.466      0.067     6.5333     86.173     41.589  30.512256     3.3078      6.974   304.1472 1.2374e-01     8.7307      8.304     12.043    11.6769   999.5921 0.0000e+00
      8.482      0.073     6.5403     86.166     41.587  30.511216     3.3044      6.974   304.1618 1.2372e-01     8.7282      8.318     12.065    11.6775   999.5921 0.0000e+00
      8.500      0.075     6.5438     86.167     41.588  30.512267     3.2869      6.974   303.5763 1.2380e-01     8.7115      8.333     12.086    11.6781   999.5922 0.0000e+00
      8.523      0.075     6.5441     86.203     41.605  30.524958     3.2618      6.971   302.6599 1.2384e-01     8.7248      8.358     12.123    11.6790   999.5921 0.0000e+00
      8.545      0.075     6.5464     86.263     41.622  30.537753     3.2509      6.969   302.3740 1.2378e-01     8.7585      8.382     12.158    11.6801   999.5921 0.0000e+00
      8.562      0.074     6.5444     86.325     41.625  30.540059     3.2421      6.969   302.7873 1.2373e-01     8.7583      8.396     12.178    11.6809   999.5921 0.0000e+00
      8.579      0.070     6.5427     86.355     41.642  30.552844     3.1646      6.970   303.3557 1.2377e-01     8.6896      8.412     12.200    11.6815   999.5921 0.0000e+00
      8.598      0.064     6.5472     86.404     41.659  30.565421     3.0081      6.970   303.5670 1.2383e-01     8.5832      8.434     12.231    11.6818   999.5922 0.0000e+00
      8.616      0.057     6.5507     86.494     41.659  30.565214     2.9014      6.969   302.6736 1.2382e-01     8.5205      8.452     12.259    11.6819   999.5923 0.0000e+00
      8.630      0.052     6.5588     86.537     41.638  30.550339     2.8793      6.969   301.1583 1.2380e-01     8.5216      8.464     12.277    11.6821   999.5923 0.0000e+00
      8.641      0.048     6.5582     86.504     41.587  30.512484     2.8542      6.970   300.6466 1.2380e-01     8.5310      8.474     12.291    11.6822   999.5924 0.0000e+00
      8.650      0.045     6.5595     86.442     41.554  30.488247     2.8060      6.970   300.7887 1.2376e-01     8.5364      8.484     12.306    11.6821   999.5924 0.0000e+00
      8.659      0.044     6.5721     86.406     41.585  30.511113     2.7735      6.970   301.1560 1.2375e-01     8.5210      8.492     12.317    11.6822   999.5925 0.0000e+00
      8.669      0.045     6.5744     86.407     41.618  30.535132     2.7640      6.969   301.9040 1.2379e-01     8.4753      8.500     12.329    11.6822   999.5925 0.0000e+00
      8.682      0.045     6.5714     86.426     41.603  30.524842     2.7786      6.969   301.6591 1.2383e-01     8.4105      8.514     12.348    11.6822   999.5925 0.0000e+00
      8.697      0.046     6.5640     86.438     41.588  30.513597     2.8114      6.969   300.3457 1.2381e-01     8.3280      8.530     12.371    11.6821   999.5926 0.0000e+00
      8.710      0.046     6.5616     86.433     41.606  30.526089     2.8305      6.970   299.4463 1.2372e-01     8.2961      8.543     12.390    11.6822   999.5927 0.0000e+00
      8.720      0.047     6.5623     86.430     41.637  30.548966     2.8275      6.970   299.2168 1.2372e-01     8.2872      8.552     12.403    11.6822   999.5927 0.0000e+00
      8.730      0.047     6.5640     86.417     41.619  30.536381     2.8103      6.970   299.2911 1.2373e-01     8.2862      8.561     12.416    11.6823   999.5927 0.0000e+00
      8.741      0.048     6.5663     86.397     41.570  30.500833     2.7871      6.969   299.5704 1.2366e-01     8.3492      8.571     12.432    11.6825   999.5928 0.0000e+00
      8.754      0.050     6.5635     86.383     41.569  30.499897     2.7722      6.967   299.8409 1.2361e-01     8.3606      8.583     12.449    11.6826   999.5928 0.0000e+00
      8.769      0.053     6.5653     86.364     41.604  30.525070     2.7684      6.966   300.2375 1.2360e-01     8.3259      8.599     12.471    11.6827   999.5929 0.0000e+00
      8.784      0.057     6.5635     86.335     41.640  30.551369     2.7774      6.967   300.6665 1.2360e-01     8.4865      8.615     12.494    11.6829   999.5930 0.0000e+00
      8.797      0.059     6.5613     86.317     41.657  30.564049     2.8028      6.967   300.5535 1.2364e-01     8.7954      8.627     12.512    11.6829   999.5930 0.0000e+00
      8.811      0.059     6.5610     86.331     41.639  30.551471     2.8237      6.967   299.9905 1.2370e-01     8.9794      8.639     12.529    11.6828   999.5930 0.0000e+00
      8.827      0.057     6.5599     86.364     41.605  30.526204     2.8311      6.966   299.3655 1.2375e-01     9.0068      8.655     12.554    11.6827   999.5931 0.0000e+00
      8.846      0.054     6.5569     86.391     41.586  30.512371     2.8404      6.965   299.1059 1.2375e-01     8.9630      8.675     12.584    11.6828   999.5933 0.0000e+00
      8.862      0.051     6.5545     86.402     41.584  30.511123     2.9012      6.965   300.2919 1.2375e-01     8.7459      8.691     12.607    11.6827   999.5933 0.0000e+00
      8.872      0.048     6.5564     86.416     41.584  30.511113     3.0102      6.966   302.4349 1.2378e-01     8.4138      8.701     12.620    11.6828   999.5934 0.0000e+00
      8.880      0.046     6.5594     86.444     41.586  30.512257     3.0757      6.966   303.3350 1.2381e-01     8.2901      8.708     12.630    11.6828   999.5934 0.0000e+00
      8.889      0.045     6.5622     86.481     41.603  30.524956     3.0944      6.965   302.7426 1.2381e-01     8.2987      8.716     12.641    11.6828   999.5934 0.0000e+00
      8.900      0.045     6.5619     86.511     41.621  30.537743     3.1755      6.965   301.8120 1.2380e-01     8.3210      8.727     12.656    11.6829   999.5935 0.0000e+00
      8.914      0.046     6.5630     86.546     41.624  30.539947     3.3365      6.966   301.4607 1.2381e-01     8.4290      8.742     12.679    11.6828   999.5935 0.0000e+00
      8.928      0.048     6.5648     86.589     41.640  30.551598     3.4374      6.966   302.2820 1.2384e-01     8.5232      8.756     12.700    11.6829   999.5936 0.0000e+00
      8.941      0.048     6.5689     86.617     41.640  30.551702     3.4507      6.965   303.7400 1.2386e-01     8.5424      8.768     12.718    11.6828   999.5937 0.0000e+00
      8.951      0.048     6.5704     86.626     41.625  30.541205     3.4713      6.965   304.4629 1.2382e-01     8.3001      8.778     12.732    11.6829   999.5937 0.0000e+00
      8.962      0.048     6.5723     86.602     41.639  30.551599     3.5123      6.965   304.3111 1.2374e-01     7.8551      8.788     12.746    11.6830   999.5937 0.0000e+00
      8.974      0.048     6.5774     86.527     41.638  30.550464     3.5477      6.965   304.0552 1.2372e-01     7.6514      8.799     12.762    11.6829   999.5938 0.0000e+00
      8.987      0.049     6.5788     86.415     41.607  30.527475     3.5619      6.966   303.8645 1.2374e-01     7.7055      8.813     12.783    11.6828   999.5939 0.0000e+00
      9.000      0.051     6.5799     86.307     41.607  30.527465     3.5274      6.966   303.4673 1.2378e-01     7.8543      8.826     12.801    11.6828   999.5939 0.0000e+00
      9.013      0.051     6.5791     86.216     41.638  30.550350     3.4605      6.965   303.2111 1.2386e-01     8.0086      8.839     12.820    11.6829   999.5940 0.0000e+00
      9.027      0.051     6.5731     86.148     41.638  30.550341     3.4208      6.965   303.6920 1.2390e-01     8.0631      8.854     12.841    11.6829   999.5941 0.0000e+00
      9.040      0.050     6.5624     86.116     41.607  30.527361     3.4106      6.965   304.1199 1.2384e-01     8.0866      8.865     12.858    11.6828   999.5941 0.0000e+00
      9.053      0.050     6.5548     86.128     41.607  30.526330     3.2764      6.965   303.9965 1.2377e-01     8.0964      8.878     12.877    11.6828   999.5942 0.0000e+00
      9.067      0.051     6.5475     86.183     41.627  30.537868     3.0037      6.964   304.0065 1.2378e-01     8.0514      8.893     12.897    11.6827   999.5943 0.0000e+00
      9.078      0.053     6.5420     86.234     41.638  30.539948     2.8444      6.964   304.2410 1.2383e-01     8.0330      8.902     12.911    11.6825   999.5944 0.0000e+00
      9.088      0.055     6.5395     86.220     41.663  30.551476     2.8241      6.964   303.4766 1.2383e-01     8.0708      8.910     12.923    11.6821   999.5944 0.0000e+00
      9.102      0.057     6.5398     86.147     41.670  30.550332     2.8280      6.963   301.9052 1.2383e-01     8.1156      8.925     12.945    11.6820   999.5945 0.0000e+00
      9.121      0.058     6.5462     86.091     41.640  30.526115     2.8914      6.963   301.2445 1.2376e-01     8.2794      8.945     12.973    11.6791   999.5949 0.0000e+00
      9.139      0.058     6.5532     86.051     41.621  30.512489     3.0099      6.964   301.3391 1.2366e-01     8.5764      8.963     13.000    11.6710   999.5958 0.0000e+00
      9.154      0.058     6.5545     86.008     41.620  30.512488     3.0813      6.964   301.9304 1.2366e-01     8.7576      8.978     13.021    11.6613   999.5970 0.0000e+00
      9.167      0.056     6.5455     85.984     41.638  30.526105     3.1050      6.964   302.8011 1.2367e-01     8.7666      8.990     13.038    11.6532   999.5980 0.0000e+00
      9.179      0.052     6.5429     85.957     41.671  30.550218     3.2955      6.964   302.1439 1.2370e-01     8.6849      9.002     13.054    11.6503   999.5983 0.0000e+00
      9.192      0.048     6.5414     85.913     41.672  30.550217     3.6505      6.964   300.2656 1.2375e-01     8.5561      9.014     13.075    11.6520   999.5982 0.0000e+00
      9.206      0.045     6.5349     85.868     41.639  30.526094     3.8431      6.964   299.3634 1.2375e-01     8.4876      9.029     13.096    11.6541   999.5981 0.0000e+00
      9.218      0.043     6.5354     85.803     41.620  30.512364     3.8386      6.964   299.4091 1.2373e-01     8.5116      9.041     13.112    11.6545   999.5981 0.0000e+00
      9.227      0.041     6.5334     85.711     41.618  30.511127     3.6655      6.963   299.7006 1.2375e-01     8.5512      9.049     13.125    11.6541   999.5982 0.0000e+00
      9.236      0.041     6.5291     85.630     41.619  30.511127     3.3624      6.963   300.1338 1.2382e-01     8.5406      9.058     13.138    11.6534   999.5983 0.0000e+00
      9.245      0.043     6.5266     85.548     41.623  30.512366     3.2002      6.964   300.1738 1.2380e-01     8.4816      9.065     13.148    11.6528   999.5984 0.0000e+00
      9.254      0.046     6.5227     85.453     41.645  30.526105     3.1872      6.964   299.7543 1.2373e-01     8.4279      9.074     13.161    11.6531   999.5984 0.0000e+00
      9.266      0.050     6.5131     85.409     41.683  30.550334     3.1791      6.964   299.2769 1.2370e-01     8.3828      9.086     13.180    11.6534   999.5984 0.0000e+00
      9.281      0.052     6.5076     85.420     41.688  30.551488     3.1545      6.964   299.0470 1.2365e-01     8.3291      9.100     13.200    11.6530   999.5985 0.0000e+00
      9.298      0.053     6.5041     85.455     41.675  30.540056     3.1318      6.965   299.0397 1.2366e-01     8.3040      9.117     13.224    11.6517   999.5988 0.0000e+00
      9.314      0.054     6.4925     85.493     41.675  30.539017     3.1210      6.966   299.1029 1.2376e-01     8.3084      9.135     13.249    11.6478   999.5993 0.0000e+00
      9.326      0.054     6.4911     85.483     41.676  30.538933     3.0586      6.965   299.7246 1.2381e-01     8.3165      9.147     13.266    11.6430   999.5999 0.0000e+00
      9.336      0.053     6.4941     85.419     41.678  30.539030     2.9414      6.964   300.7922 1.2379e-01     8.3038      9.155     13.279    11.6402   999.6002 0.0000e+00
      9.349      0.052     6.4959     85.360     41.683  30.540183     2.8832      6.964   300.9989 1.2374e-01     8.2859      9.166     13.295    11.6373   999.6006 0.0000e+00
      9.364      0.050     6.5021     85.311     41.703  30.552874     2.8834      6.963   300.2446 1.2373e-01     8.2960      9.183     13.319    11.6358   999.6008 0.0000e+00
      9.380      0.048     6.5014     85.225     41.720  30.565565     2.8749      6.963   299.5867 1.2376e-01     8.2956      9.201     13.344    11.6360   999.6009 0.0000e+00
      9.393      0.045     6.4943     85.117     41.720  30.566717     2.8842      6.963   299.4114 1.2377e-01     8.2807      9.213     13.363    11.6338   999.6012 0.0000e+00
      9.402      0.041     6.4897     85.030     41.718  30.566812     2.9258      6.964   299.5021 1.2374e-01     8.2806      9.221     13.375    11.6302   999.6016 0.0000e+00
      9.410      0.037     6.4895     84.954     41.718  30.566707     2.9539      6.964   300.1673 1.2369e-01     8.2935      9.227     13.383    11.6279   999.6019 0.0000e+00
      9.418      0.034     6.4819     84.895     41.717  30.565450     2.9553      6.964   301.1738 1.2370e-01     8.3052      9.235     13.395    11.6281   999.6019 0.0000e+00
      9.426      0.034     6.4704     84.847     41.698  30.551606     2.8986      6.964   301.4323 1.2375e-01     8.3569      9.244     13.409    11.6306   999.6017 0.0000e+00
      9.435      0.036     6.4663     84.803     41.663  30.526234     2.7888      6.964   301.2280 1.2375e-01     8.4604      9.254     13.420    11.6321   999.6016 0.0000e+00
      9.443      0.039     6.4590     84.802     41.643  30.512503     2.7293      6.964   300.7688 1.2372e-01     8.5071      9.260     13.430    11.6319   999.6016 0.0000e+00
      9.453      0.042     6.4545     84.813     41.640  30.512493     2.7165      6.964   300.0967 1.2372e-01     8.4957      9.269     13.443    11.6319   999.6017 0.0000e+00
      9.464      0.045     6.4530     84.791     41.657  30.526118     2.7465      6.963   300.1563 1.2374e-01     8.3877      9.281     13.461    11.6317   999.6017 0.0000e+00
      9.477      0.048     6.4459     84.771     41.689  30.550335     2.8322      6.963   300.8007 1.2370e-01     8.1849      9.293     13.479    11.6315   999.6018 0.0000e+00
      9.490      0.052     6.4475     84.770     41.689  30.551479     2.8854      6.963   301.1772 1.2370e-01     8.1079      9.307     13.498    11.6330   999.6017 0.0000e+00
      9.502      0.053     6.4507     84.771     41.674  30.539941     2.8867      6.963   301.1811 1.2376e-01     8.1120      9.319     13.516    11.6355   999.6015 0.0000e+00
      9.516      0.052     6.4459     84.777     41.672  30.537749     2.8747      6.963   300.9337 1.2376e-01     8.1375      9.331     13.534    11.6375   999.6013 0.0000e+00
      9.533      0.050     6.4441     84.781     41.656  30.524974     2.8699      6.964   300.5088 1.2371e-01     8.2517      9.348     13.560    11.6384   999.6013 0.0000e+00
      9.548      0.045     6.4450     84.762     41.640  30.512389     2.8725      6.964   300.0874 1.2371e-01     8.3134      9.364     13.583    11.6394   999.6013 0.0000e+00
      9.558      0.039     6.4445     84.739     41.641  30.512492     2.8715      6.963   299.7965 1.2374e-01     8.2937      9.374     13.596    11.6396   999.6013 0.0000e+00
      9.566      0.032     6.4452     84.721     41.660  30.526221     2.8055      6.962   299.7457 1.2375e-01     8.1770      9.381     13.606    11.6378   999.6015 0.0000e+00
      9.573      0.025     6.4473     84.700     41.695  30.551480     2.6723      6.962   299.7310 1.2375e-01     7.9513      9.389     13.618    11.6363   999.6017 0.0000e+00
      9.578      0.019     6.4443     84.666     41.711  30.564075     2.5960      6.962   299.6178 1.2369e-01     7.8253      9.394     13.625    11.6355   999.6018 0.0000e+00
      9.581      0.015     6.4426     84.624     41.693  30.551593     2.5860      6.962   299.5821 1.2366e-01     7.8333      9.396     13.627    11.6351   999.6019 0.0000e+00
      9.584      0.012     6.4419     84.586     41.660  30.527469     2.5862      6.962   299.1268 1.2368e-01     7.8517      9.398     13.631    11.6347   999.6020 0.0000e+00
      9.586      0.010     6.4403     84.557     41.658  30.526211     2.5894      6.963   298.2428 1.2374e-01     7.9496      9.401     13.635    11.6345   999.6020 0.0000e+00
      9.588      0.010     6.4381     84.554     41.671  30.536387     2.5897      6.964   297.8419 1.2381e-01     8.1656      9.403     13.638    11.6350   999.6020 0.0000e+00
      9.591      0.011     6.4336     84.586     41.653  30.523591     2.5901      6.964   297.8078 1.2376e-01     8.2998      9.405     13.641    11.6357   999.6019 0.0000e+00
      9.594      0.012     6.4314     84.653     41.618  30.498408     2.5855      6.964   297.9156 1.2371e-01     8.2945      9.409     13.645    11.6359   999.6019 0.0000e+00
      9.597      0.012     6.4281     84.738     41.600  30.485726     2.5600      6.964   298.1990 1.2375e-01     8.2321      9.411     13.650    11.6360   999.6019 0.0000e+00
      9.601      0.011     6.4276     84.813     41.617  30.497169     2.5335      6.964   298.2239 1.2373e-01     8.1355      9.415     13.656    11.6371   999.6018 0.0000e+00
      9.605      0.011     6.4300     84.883     41.635  30.509851     2.5245      6.963   297.6142 1.2373e-01     8.0765      9.419     13.661    11.6382   999.6017 0.0000e+00
      9.607      0.010     6.4350     84.956     41.639  30.512148     2.5212      6.963   296.5910 1.2378e-01     8.0434      9.421     13.664    11.6385   999.6016 0.0000e+00
      9.608      0.010     6.4432     85.003     41.657  30.524943     2.5365      6.963   296.0058 1.2370e-01     7.8986      9.422     13.666    11.6386   999.6016 0.0000e+00
      9.610      0.009     6.4483     85.028     41.676  30.537643     2.5627      6.963   295.9589 1.2361e-01     7.7026      9.424     13.668    11.6377   999.6017 0.0000e+00
      9.613      0.008     6.4532     85.053     41.679  30.538798     2.5770      6.963   296.1956 1.2368e-01     7.6390      9.426     13.672    11.6365   999.6019 0.0000e+00
      9.616      0.008     6.4601     85.054     41.679  30.538894     2.5876      6.964   296.5453 1.2377e-01     7.6544      9.429     13.676    11.6359   999.6020 0.0000e+00
      9.618      0.007     6.4643     85.038     41.678  30.538808     2.6044      6.964   296.4869 1.2376e-01     7.8236      9.432     13.681    11.6356   999.6020 0.0000e+00
      9.620      0.006     6.4638     85.040     41.676  30.537758     2.6243      6.964   296.0064 1.2376e-01     8.1446      9.434     13.683    11.6345   999.6022 0.0000e+00
      9.621      0.005     6.4684     85.041     41.660  30.526213     2.6377      6.964   295.5537 1.2380e-01     8.2913      9.434     13.683    11.6331   999.6023 0.0000e+00
      9.622      0.004     6.4683     85.031     41.659  30.526118     2.6628      6.964   295.4011 1.2383e-01     8.3193      9.435     13.684    11.6329   999.6024 0.0000e+00
      9.622      0.003     6.4643     85.016     41.673  30.536617     2.8234      6.964   295.4525 1.2386e-01     8.3185      9.436     13.686    11.6336   999.6023 0.0000e+00
      9.623      0.003     6.4666     85.003     41.659  30.526232     3.0962      6.964   295.4861 1.2388e-01     8.1836      9.437     13.687    11.6344   999.6022 0.0000e+00
      9.624      0.002     6.4662     84.996     41.661  30.527470     3.2395      6.964   295.7212 1.2383e-01     8.0648      9.438     13.688    11.6349   999.6021 0.0000e+00
      9.624      0.002     6.4654     84.951     41.695  30.551594     3.2467      6.964   296.1450 1.2382e-01     8.0616      9.439     13.689    11.6353   999.6021 0.0000e+00
      9.624      0.002     6.4640     84.822     41.713  30.564087     3.2360      6.965   296.3079 1.2383e-01     8.0799      9.438     13.689    11.6355   999.6021 0.0000e+00
      9.625      0.002     6.4624     84.672     41.697  30.551606     3.1443      6.966   296.2282 1.2374e-01     8.1875      9.439     13.690    11.6354   999.6021 0.0000e+00
      9.625      0.002     6.4632     84.576     41.666  30.527595     2.9791      6.966   295.8695 1.2372e-01     8.4127      9.439     13.690    11.6349   999.6021 0.0000e+00
      9.625      0.001     6.4627     84.518     41.667  30.527595     2.8945      6.965   295.3266 1.2378e-01     8.5415      9.439     13.690    11.6342   999.6022 0.0000e+00
      9.626      0.001     6.4501     84.481     41.700  30.551605     2.8844      6.965   295.0841 1.2378e-01     8.5318      9.440     13.692    11.6335   999.6023 0.0000e+00
      9.627      0.001     6.4357     84.490     41.717  30.564068     2.8489      6.966   295.6046 1.2377e-01     8.3604      9.441     13.693    11.6321   999.6025 0.0000e+00
      9.627      0.001     6.4306     84.561     41.700  30.551377     2.7942      6.966   296.4572 1.2376e-01     8.0752      9.440     13.692    11.6305   999.6026 0.0000e+00
      9.627      0.001     6.4268     84.671     41.665  30.525069     2.7690      6.966   296.7041 1.2375e-01     7.9350      9.440     13.692    11.6298   999.6027 0.0000e+00
      9.627      0.000     6.4227     84.763     41.632  30.499802     2.7790      6.966   296.4384 1.2371e-01     7.9103      9.441     13.692    11.6298   999.6027 0.0000e+00
      9.627 1.8628e-08     6.4228     84.783     41.633  30.499697     2.8710      6.967   295.9971 1.2366e-01     7.9407      9.440     13.692    11.6305   999.6026 0.0000e+00
      9.627 2.0491e-07     6.4289     84.745     41.667  30.523812     3.0409      6.968   295.6702 1.2366e-01     8.0405      9.440     13.692    11.6303   999.6026 0.0000e+00
      9.627 2.0492e-07     6.4391     84.705     41.687  30.537542     3.1333      6.969   295.9281 1.2371e-01     8.0690      9.441     13.693    11.6292   999.6028 0.0000e+00
      9.627 1.8782e-08     6.4481     84.670     41.690  30.538789     3.1308      6.969   296.6209 1.2376e-01     8.0547      9.440     13.692    11.6277   999.6029 0.0000e+00
      9.627 3.3869e-09     6.4499     84.649     41.691  30.538892     3.1227      6.969   296.9914 1.2369e-01     8.0643      9.441     13.693    11.6260   999.6031 0.0000e+00
      9.627 -9.990e-29     6.4441 -9.990e-29 -9.990e-29 -9.990e-29 -9.990e-29 -9.990e-29 -9.990e-29 1.2363e-01 -9.990e-29      9.441     13.693    11.6249   999.6032 0.0000e+00
      9.627 -9.990e-29     6.4418 -9.990e-29 -9.990e-29 -9.990e-29 -9.990e-29 -9.990e-29 -9.990e-29 1.2368e-01 -9.990e-29      9.440     13.692    11.6245   999.6033 0.0000e+00
      9.627 -9.990e-29     6.4400 -9.990e-29 -9.990e-29 -9.990e-29 -9.990e-29 -9.990e-29 -9.990e-29 1.2375e-01 -9.990e-29      9.441     13.693    11.6229   999.6035 0.0000e+00
      9.627 -9.990e-29     6.4358 -9.990e-29 -9.990e-29 -9.990e-29 -9.990e-29 -9.990e-29 -9.990e-29 1.2379e-01 -9.990e-29      9.441     13.693    11.6211   999.6037 0.0000e+00
