* Sea-Bird SBE19plus  Data File:
* FileName = C:\DATA\110819_fcr50_0002.hex
* Software version 2.8.0.119 SB_Terminal.dll
* Temperature SN = 7809
* Conductivity SN = 7809
* System UpLoad Time = Nov 11 2019 10:23:25
* <ApplicationData>
* <Seaterm232>
* <SoftwareVersion>2.8.0.119</SoftwareVersion>
* <BuildDate>07-Nov-2018</BuildDate>
* </Seaterm232>
* </ApplicationData>
* cast   2 08 Nov 2019 13:36:29 samples 1220 to 1759, avg = 1, stop = mag switch
# nquan = 16
# nvalues = 429                         
# units = specified
# name 0 = depFM: Depth [fresh water, m]
# name 1 = dz/dtM: Descent Rate [m/s]
# name 2 = sbeox0ML/L: Oxygen, SBE 43 [ml/l]
# name 3 = sbeox0PS: Oxygen, SBE 43 [% saturation]
# name 4 = specc: Specific Conductance [uS/cm]
# name 5 = c0uS/cm: Conductivity [uS/cm]
# name 6 = flECO-AFL: Fluorescence, WET Labs ECO-AFL/FL [mg/m^3]
# name 7 = ph: pH
# name 8 = orp: Oxidation Reduction Potential [mV]
# name 9 = par/sat/log: PAR/Logarithmic, Satlantic
# name 10 = turbWETntu0: Turbidity, WET Labs ECO [NTU]
# name 11 = prdM: Pressure, Strain Gauge [db]
# name 12 = prdE: Pressure, Strain Gauge [psi]
# name 13 = tv290C: Temperature [ITS-90, deg C]
# name 14 = density00: Density [density, kg/m^3]
# name 15 = flag:  0.000e+00
# span 0 =     -0.536,      2.414       
# span 1 =     -0.311,      0.358       
# span 2 =     5.2752,     7.8451       
# span 3 =     68.838,     98.775       
# span 4 =      1.093,     43.499       
# span 5 =   0.721953,  30.366770       
# span 6 =    -0.2353,   236.6701       
# span 7 =      6.318,      8.642       
# span 8 = -1240.7455,   886.2704       
# span 9 = 1.6644e+01, 1.6298e+03       
# span 10 =    -1.6809,    52.7672      
# span 11 =     -0.526,      2.368      
# span 12 =     -0.763,      3.434      
# span 13 =     8.0032,    11.4142      
# span 14 =   999.5819,   999.8514      
# span 15 = 0.0000e+00, 0.0000e+00      
# interval = seconds: 0.25
# start_time = Nov 08 2019 13:36:29 [Instrument's time stamp, header]
# bad_flag = -9.990e-29
# <Sensors count="9" >
#   <sensor Channel="1" >
#     <!-- Count, Temperature -->
#     <TemperatureSensor SensorID="58" >
#       <SerialNumber>7809</SerialNumber>
#       <CalibrationDate>24-Mar-19</CalibrationDate>
#       <A0>1.21792325e-003</A0>
#       <A1>2.81669265e-004</A1>
#       <A2>-1.60333336e-006</A2>
#       <A3>1.98414625e-007</A3>
#       <Slope>1.00000000</Slope>
#       <Offset>0.0000</Offset>
#     </TemperatureSensor>
#   </sensor>
#   <sensor Channel="2" >
#     <!-- Frequency 0, Conductivity -->
#     <ConductivitySensor SensorID="3" >
#       <SerialNumber>7809</SerialNumber>
#       <CalibrationDate>24-Mar-19</CalibrationDate>
#       <UseG_J>1</UseG_J>
#       <!-- Cell const and series R are applicable only for wide range sensors. -->
#       <SeriesR>0.0000</SeriesR>
#       <CellConst>2000.0000</CellConst>
#       <ConductivityType>0</ConductivityType>
#       <Coefficients equation="0" >
#         <A>0.00000000e+000</A>
#         <B>0.00000000e+000</B>
#         <C>0.00000000e+000</C>
#         <D>0.00000000e+000</D>
#         <M>0.0</M>
#         <CPcor>-9.57000000e-008</CPcor>
#       </Coefficients>
#       <Coefficients equation="1" >
#         <G>-1.00589325e+000</G>
#         <H>1.26816302e-001</H>
#         <I>-1.51560448e-004</I>
#         <J>2.67137274e-005</J>
#         <CPcor>-9.57000000e-008</CPcor>
#         <CTcor>3.2500e-006</CTcor>
#         <!-- WBOTC not applicable unless ConductivityType = 1. -->
#         <WBOTC>0.00000000e+000</WBOTC>
#       </Coefficients>
#       <Slope>1.00000000</Slope>
#       <Offset>0.00000</Offset>
#     </ConductivitySensor>
#   </sensor>
#   <sensor Channel="3" >
#     <!-- Count, Pressure, Strain Gauge -->
#     <PressureSensor SensorID="46" >
#       <SerialNumber>7809</SerialNumber>
#       <CalibrationDate>11-Mar-19</CalibrationDate>
#       <PA0>4.56561833e-002</PA0>
#       <PA1>4.85095118e-004</PA1>
#       <PA2>-2.88327090e-012</PA2>
#       <PTEMPA0>-5.48784562e+001</PTEMPA0>
#       <PTEMPA1>5.53756816e+001</PTEMPA1>
#       <PTEMPA2>-5.86727098e-001</PTEMPA2>
#       <PTCA0>5.25246745e+005</PTCA0>
#       <PTCA1>1.22304214e+001</PTCA1>
#       <PTCA2>-3.56745036e-001</PTCA2>
#       <PTCB0>2.51668750e+001</PTCB0>
#       <PTCB1>3.75000000e-004</PTCB1>
#       <PTCB2>0.00000000e+000</PTCB2>
#       <Offset>0.000000</Offset>
#     </PressureSensor>
#   </sensor>
#   <sensor Channel="4" >
#     <!-- A/D voltage 0, Oxygen, SBE 43 -->
#     <OxygenSensor SensorID="38" >
#       <SerialNumber>0434</SerialNumber>
#       <CalibrationDate>13-Apr-19</CalibrationDate>
#       <Use2007Equation>1</Use2007Equation>
#       <CalibrationCoefficients equation="0" >
#         <!-- Coefficients for Owens-Millard equation. -->
#         <Boc>0.0000</Boc>
#         <Soc>0.0000e+000</Soc>
#         <offset>0.0000</offset>
#         <Pcor>0.00e+000</Pcor>
#         <Tcor>0.0000</Tcor>
#         <Tau>0.0</Tau>
#       </CalibrationCoefficients>
#       <CalibrationCoefficients equation="1" >
#         <!-- Coefficients for Sea-Bird equation - SBE calibration in 2007 and later. -->
#         <Soc>4.2007e-001</Soc>
#         <offset>-0.6109</offset>
#         <A>-4.3656e-003</A>
#         <B> 1.7017e-004</B>
#         <C>-2.5341e-006</C>
#         <D0> 2.5826e+000</D0>
#         <D1> 1.92634e-004</D1>
#         <D2>-4.64803e-002</D2>
#         <E> 3.6000e-002</E>
#         <Tau20> 1.1800</Tau20>
#         <H1>-3.3000e-002</H1>
#         <H2> 5.0000e+003</H2>
#         <H3> 1.4500e+003</H3>
#       </CalibrationCoefficients>
#     </OxygenSensor>
#   </sensor>
#   <sensor Channel="5" >
#     <!-- A/D voltage 1, PAR/Logarithmic, Satlantic -->
#     <PARLog_SatlanticSensor SensorID="76" >
#       <SerialNumber>1122</SerialNumber>
#       <CalibrationDate>08-May-2019</CalibrationDate>
#       <a0>9.7456e-001</a0>
#       <a1>8.1640e-001</a1>
#       <Im>1.3589e+000</Im>
#       <Multiplier>1.0000e+000</Multiplier>
#     </PARLog_SatlanticSensor>
#   </sensor>
#   <sensor Channel="6" >
#     <!-- A/D voltage 2, pH -->
#     <pH_Sensor SensorID="43" >
#       <SerialNumber>0363</SerialNumber>
#       <CalibrationDate>15-Apr-19</CalibrationDate>
#       <Slope>4.5952</Slope>
#       <Offset>2.5370</Offset>
#     </pH_Sensor>
#   </sensor>
#   <sensor Channel="7" >
#     <!-- A/D voltage 3, Oxidation Reduction Potential -->
#     <OxidationReductionPotentialSensor SensorID="41" >
#       <SerialNumber>0363</SerialNumber>
#       <CalibrationDate>15-Apr-19</CalibrationDate>
#       <B>2.499480</B>
#       <M>-0.496195</M>
#       <Offset>0.0</Offset>
#     </OxidationReductionPotentialSensor>
#   </sensor>
#   <sensor Channel="8" >
#     <!-- A/D voltage 4, Fluorometer, WET Labs ECO-AFL/FL -->
#     <FluoroWetlabECO_AFL_FL_Sensor SensorID="20" >
#       <SerialNumber>FLNTURT-2496</SerialNumber>
#       <CalibrationDate>08-May-2019</CalibrationDate>
#       <ScaleFactor>5.00000000e+001</ScaleFactor>
#       <!-- Dark output -->
#       <Vblank>0.0550</Vblank>
#     </FluoroWetlabECO_AFL_FL_Sensor>
#   </sensor>
#   <sensor Channel="9" >
#     <!-- A/D voltage 5, Turbidity Meter, WET Labs, ECO-NTU -->
#     <TurbidityMeter SensorID="67" >
#       <SerialNumber>FLNTURT-2496</SerialNumber>
#       <CalibrationDate>08-May-2019</CalibrationDate>
#       <ScaleFactor>189.000000</ScaleFactor>
#       <!-- Dark output -->
#       <DarkVoltage>0.071000</DarkVoltage>
#     </TurbidityMeter>
#   </sensor>
# </Sensors>
# datcnv_date = Nov 11 2019 10:29:31, 7.26.7.129 [datcnv_vars = 15]
# datcnv_in = C:\DATA\110819_fcr10.hex C:\DATA\SBE19plusV2_7809.xmlcon
# datcnv_skipover = 0
# datcnv_ox_hysteresis_correction = yes
# datcnv_ox_tau_correction = yes
# filter_date = Nov 11 2019 10:29:58, 7.26.7.129
# filter_in = C:\DATA\110819_fcr10.cnv
# filter_low_pass_tc_A = 0.030
# filter_low_pass_tc_B = 0.150
# filter_low_pass_A_vars = sbeox0ML/L prdM prdE tv290C density00
# filter_low_pass_B_vars = depFM dz/dtM sbeox0PS specc c0uS/cm flECO-AFL ph orp par/sat/log turbWETntu0
# alignctd_date = Nov 11 2019 10:30:18, 7.26.7.129
# alignctd_in = C:\DATA\110819_fcr10.cnv
# alignctd_adv = dz/dtM 1.000, sbeox0PS 1.000, specc 1.000, c0uS/cm 1.000, flECO-AFL 1.000, ph 1.000, orp 1.000, turbWETntu0 1.000                                                                                                   
# file_type = ascii
*END*
     -0.535 2.1030e-14     7.8451     94.566      1.299   0.857940    -0.1608      6.730 -1235.1735 4.7795e+02    -0.5465     -0.525     -0.761     8.0032   999.8514 0.0000e+00
     -0.535 2.3132e-13     7.8357     94.547      1.321   0.872121    -0.1672      6.614 -1179.4534 1.0767e+03    -0.5700     -0.525     -0.761     8.0050   999.8512 0.0000e+00
     -0.535 2.5446e-12     7.8374     94.552      1.217   0.803294    -0.1713      6.478  -566.5329 1.4916e+03    -0.5525     -0.525     -0.762     8.0082   999.8511 0.0000e+00
     -0.535 2.7990e-11     7.8395     94.571      1.095   0.722748    -0.1591      6.318   537.0138 1.5360e+03    -0.5308     -0.524     -0.761     8.0106   999.8509 0.0000e+00
     -0.535 3.0789e-10     7.8328     94.587      1.093   0.721953    -0.1229      6.331   886.2704 1.3823e+03    -0.5038     -0.525     -0.760     8.0118   999.8508 0.0000e+00
     -0.535 3.3868e-09     7.8328     94.591      1.202   0.793693    -0.0980      6.533   134.6262 1.1982e+03    -0.4887     -0.524     -0.761     8.0105   999.8509 0.0000e+00
     -0.535 3.7255e-08     7.8330     94.581      1.448   0.956522    -0.1007      6.751  -795.5598 1.1437e+03    -0.5448     -0.525     -0.760     8.0081   999.8510 0.0000e+00
     -0.536 4.0981e-07     7.8360     94.575      1.674   1.106622    -0.1215      6.860 -1200.2741 1.2029e+03    -0.5593     -0.525     -0.762     8.0072   999.8510 0.0000e+00
     -0.536      0.000     7.8366     94.596      1.741   1.151184    -0.1580      6.831 -1237.0663 1.2048e+03    -0.5329     -0.525     -0.762     8.0113   999.8507 0.0000e+00
     -0.536      0.000     7.8347     94.614      1.686   1.115142    -0.1784      6.748 -1240.4111 1.1975e+03    -0.5542     -0.525     -0.762     8.0225   999.8501 0.0000e+00
     -0.535      0.001     7.8319     94.605      1.589   1.051020    -0.1685      6.680 -1240.7151 1.2871e+03    -0.5544     -0.525     -0.761     8.0339   999.8494 0.0000e+00
     -0.535      0.001     7.8273     94.595      1.526   1.009520    -0.1599      6.622 -1240.7428 1.3201e+03    -0.5352     -0.525     -0.761     8.0442   999.8489 0.0000e+00
     -0.535      0.001     7.8288     94.592      1.501   0.993557    -0.1605      6.571 -1240.7453 1.1091e+03    -0.5516     -0.525     -0.761     8.0541   999.8483 0.0000e+00
     -0.534      0.001     7.8309     94.633      1.488   0.984739    -0.1587      6.543 -1240.7455 6.9374e+02    -0.5560     -0.524     -0.760     8.0612   999.8479 0.0000e+00
     -0.534      0.001     7.8259     94.689      1.556   1.029632    -0.1560      6.535 -1240.7451 5.4090e+02    -0.5230     -0.524     -0.760     8.0672   999.8475 0.0000e+00
     -0.534      0.000     7.8260     94.685      1.651   1.092808    -0.1536      6.544 -1240.7414 6.1677e+02    -0.5124     -0.524     -0.760     8.0731   999.8471 0.0000e+00
     -0.534 2.2406e-07     7.8217     94.660      1.589   1.051589    -0.1469      6.574 -1240.7009 5.5161e+02    -0.5254     -0.524     -0.760     8.0799   999.8466 0.0000e+00
     -0.534      0.000     7.8237     94.651      1.665   1.101536    -0.1442      6.599 -1240.2551 5.1026e+02    -0.5165     -0.524     -0.760     8.0857   999.8463 0.0000e+00
     -0.534      0.000     7.8344     94.683      1.798   1.189791    -0.1562      6.596 -1235.3510 7.2792e+02    -0.5690     -0.524     -0.759     8.0896   999.8460 0.0000e+00
     -0.535      0.000     7.8282     94.723      1.764   1.168211    -0.1878      6.564 -1181.4062 1.1999e+03    -0.8978     -0.524     -0.760     8.0896   999.8462 0.0000e+00
     -0.535      0.003     7.8273     94.694      3.464   2.297979    -0.2223      6.515  -588.0127 1.5141e+03    -1.4116     -0.525     -0.761     8.0921   999.8458 0.0000e+00
     -0.535      0.018     7.8246     94.614     14.509   9.653535    -0.2353      6.637   300.7361 1.3635e+03    -1.6688     -0.524     -0.760     8.0906   999.8462 0.0000e+00
     -0.535      0.059     7.8268     94.535     32.753  21.946013    -0.2325      7.097   477.1712 1.0904e+03    -1.6809     -0.525     -0.761     8.0951   999.8457 0.0000e+00
     -0.534      0.123     7.8358     94.440     42.701  28.988530    -0.2230      7.660   292.8613 1.1565e+03    -1.6240     -0.523     -0.757     8.0928   999.8462 0.0000e+00
     -0.524      0.195     7.8283     94.308     43.499  30.056505    -0.1729      8.072   275.5539 1.3994e+03    -0.8171     -0.526     -0.763     8.1055   999.8444 0.0000e+00
     -0.474      0.263     7.8226     94.218     42.984  30.163928    -0.0854      8.334   274.1899 1.5054e+03     0.6684     -0.497     -0.721     8.0915   999.8482 0.0000e+00
     -0.361      0.319     7.7833     94.225     42.501  30.160951    -0.0410      8.493   274.1324 1.5436e+03     1.4591     -0.359     -0.522     8.2608   999.8481 0.0000e+00
     -0.228      0.354     7.6622     94.339     42.173  30.147760    -0.0092      8.582   273.9988 1.6111e+03     1.6318     -0.207     -0.300     8.8869   999.8083 0.0000e+00
     -0.121      0.358     7.5173     94.593     41.959  30.131579     0.3686      8.624   273.9511 1.6298e+03     3.0845     -0.114     -0.165     9.5975   999.7528 0.0000e+00
     -0.033      0.323     7.4132     94.994     41.788  30.092349     1.0594      8.639   273.8993 1.3126e+03     5.7499     -0.033     -0.047    10.1416   999.7064 0.0000e+00
      0.047      0.258     7.3471     95.509     41.666  30.054252     1.4331      8.642   273.7171 7.9619e+02     7.2157      0.051      0.074    10.5319   999.6705 0.0000e+00
      0.113      0.189     7.3124     96.094     41.625  30.051732     1.4616      8.640   273.5550 6.1951e+02     7.3380      0.121      0.176    10.7737   999.6474 0.0000e+00
      0.152      0.131     7.3071     96.711     41.615  30.061905     1.4821      8.633   273.4879 6.4737e+02     7.2930      0.159      0.232    10.9240   999.6326 0.0000e+00
      0.163      0.084     7.3229     97.318     41.580  30.050358     1.5248      8.622   273.4221 6.5995e+02     7.2292      0.164      0.238    11.0169   999.6233 0.0000e+00
      0.160      0.049     7.3548     97.871     41.548  30.039039     1.5448      8.612   273.2755 7.7347e+02     7.1895      0.154      0.224    11.0737   999.6174 0.0000e+00
      0.159      0.030     7.3962     98.304     41.550  30.051964     1.5332      8.602   273.2643 8.2816e+02     7.2064      0.153      0.222    11.0960   999.6152 0.0000e+00
      0.165      0.026     7.4415     98.575     41.577  30.079749     1.5493      8.592   273.3733 8.7601e+02     7.3349      0.162      0.235    11.1196   999.6128 0.0000e+00
      0.173      0.032     7.4862     98.720     41.626  30.121174     1.6091      8.580   273.3022 9.7318e+02     7.5310      0.170      0.246    11.1339   999.6113 0.0000e+00
      0.183      0.037     7.5287     98.775     41.686  30.172102     1.6413      8.567   273.0928 8.9418e+02     7.6115      0.177      0.257    11.1464   999.6100 0.0000e+00
      0.196      0.037     7.5612     98.749     41.693  30.187889     1.6352      8.555   272.8206 7.6273e+02     7.5537      0.191      0.278    11.1634   999.6084 0.0000e+00
      0.211      0.031     7.5784     98.657     41.674  30.185161     1.6043      8.543   272.5056 6.9808e+02     7.3572      0.208      0.302    11.1721   999.6075 0.0000e+00
      0.221      0.022     7.5875     98.488     41.687  30.202582     1.5535      8.528   272.4682 6.3600e+02     7.0697      0.221      0.319    11.1765   999.6072 0.0000e+00
      0.225      0.012     7.5905     98.112     41.687  30.208162     1.5332      8.511   272.7124 7.0422e+02     6.9292      0.223      0.323    11.1850   999.6063 0.0000e+00
      0.223      0.003     7.5856     97.331     41.655  30.189183     1.5406      8.493   272.9624 8.6977e+02     6.9365      0.221      0.321    11.1998   999.6048 0.0000e+00
      0.217     -0.004     7.5747     96.033     41.612  30.163479     1.5387      8.473   273.3404 8.9385e+02     6.9615      0.213      0.310    11.2147   999.6031 0.0000e+00
      0.212     -0.005     7.5642     94.238     41.586  30.151203     1.5362      8.449   273.6697 7.5732e+02     6.9704      0.205      0.298    11.2249   999.6021 0.0000e+00
      0.211      0.000     7.5410     92.038     41.597  30.167675     1.5365      8.427   273.5882 5.8076e+02     6.9453      0.207      0.300    11.2303   999.6015 0.0000e+00
      0.213      0.008     7.4838     89.610     41.595  30.172280     1.5336      8.410   273.3006 5.0773e+02     6.9208      0.208      0.302    11.2345   999.6011 0.0000e+00
      0.214      0.013     7.3815     87.200     41.555  30.143426     1.5366      8.395   273.1182 6.0551e+02     6.9354      0.209      0.303    11.2400   999.6005 0.0000e+00
      0.219      0.014     7.2403     84.990     41.551  30.136084     1.5370      8.381   273.1035 6.7661e+02     6.9576      0.213      0.309    11.2489   999.5996 0.0000e+00
      0.229      0.010     7.0660     83.142     41.568  30.146964     1.5295      8.368   273.1234 6.2094e+02     6.9605      0.224      0.326    11.2586   999.5986 0.0000e+00
      0.237      0.004     6.8689     81.739     41.563  30.148066     1.5240      8.356   273.1003 5.7935e+02     6.9700      0.238      0.345    11.2684   999.5977 0.0000e+00
      0.236     -0.004     6.6812     80.713     41.555  30.149403     1.5225      8.345   273.1681 5.2941e+02     6.9742      0.235      0.340    11.2701   999.5975 0.0000e+00
      0.228     -0.011     6.5083     79.985     41.563  30.163141     1.5206      8.333   273.3411 5.2788e+02     6.9457      0.222      0.322    11.2587   999.5986 0.0000e+00
      0.221     -0.012     6.3632     79.514     41.587  30.187275     1.5187      8.320   273.4714 8.3237e+02     6.8878      0.216      0.314    11.2557   999.5989 0.0000e+00
      0.215     -0.006     6.2585     79.200     41.584  30.187391     1.5171      8.306   273.5390 1.3314e+03     6.8643      0.210      0.306    11.2642   999.5980 0.0000e+00
      0.210      0.006     6.1807     78.950     41.559  30.164541     1.5183      8.291   273.6417 1.4096e+03     6.9238      0.203      0.294    11.2737   999.5969 0.0000e+00
      0.211      0.021     6.1230     78.765     41.568  30.164813     1.5246      8.274   273.6807 9.9931e+02     7.0164      0.202      0.292    11.2832   999.5959 0.0000e+00
      0.222      0.032     6.0893     78.657     41.604  30.190672     1.5228      8.258   273.5804 7.6986e+02     7.0998      0.216      0.313    11.2933   999.5950 0.0000e+00
      0.238      0.037     6.0680     78.617     41.642  30.223384     1.5147      8.246   273.4617 7.4854e+02     7.1127      0.234      0.339    11.2988   999.5944 0.0000e+00
      0.254      0.035     6.0487     78.635     41.662  30.243062     1.5215      8.238   273.3641 6.7009e+02     7.0742      0.249      0.361    11.2889   999.5956 0.0000e+00
      0.267      0.029     6.0361     78.706     41.651  30.238237     1.5537      8.233   273.2603 5.9289e+02     6.9949      0.266      0.385    11.2774   999.5969 0.0000e+00
      0.272      0.021     6.0276     78.817     41.637  30.228503     1.5830      8.224   273.2392 5.3343e+02     6.8413      0.270      0.392    11.2794   999.5967 0.0000e+00
      0.269      0.016     6.0245     78.964     41.583  30.188831     1.5818      8.213   273.2813 5.2653e+02     6.7253      0.264      0.383    11.2859   999.5960 0.0000e+00
      0.266      0.011     6.0238     79.126     41.518  30.139284     1.5818      8.202   273.2532 5.1069e+02     6.7059      0.261      0.378    11.2943   999.5950 0.0000e+00
      0.266      0.006     6.0302     79.279     41.521  30.137077     1.5913      8.192   273.2432 4.7301e+02     6.7386      0.256      0.373    11.2975   999.5947 0.0000e+00
      0.275      0.004     6.0380     79.427     41.566  30.162145     1.5843      8.181   273.3336 4.9946e+02     6.7599      0.269      0.390    11.2976   999.5948 0.0000e+00
      0.284      0.003     6.0499     79.560     41.609  30.188548     1.5748      8.169   273.4853 5.9638e+02     6.7340      0.286      0.414    11.2975   999.5948 0.0000e+00
      0.281     -0.001     6.0646     79.677     41.626  30.202490     1.5811      8.156   273.5281 6.3204e+02     6.6878      0.276      0.402    11.2940   999.5951 0.0000e+00
      0.274     -0.007     6.0750     79.756     41.620  30.203810     1.5912      8.145   273.3355 5.8050e+02     6.6600      0.266      0.385    11.2918   999.5953 0.0000e+00
      0.272     -0.012     6.0896     79.738     41.614  30.204506     1.5756      8.136   273.1345 6.0475e+02     6.6606      0.267      0.386    11.2786   999.5967 0.0000e+00
      0.270     -0.015     6.1005     79.585     41.621  30.210913     1.5393      8.127   273.0780 6.7485e+02     6.6626      0.266      0.387    11.2688   999.5978 0.0000e+00
      0.265     -0.014     6.1090     79.312     41.639  30.217826     1.5169      8.118   273.0822 7.2281e+02     6.6511      0.260      0.378    11.2747   999.5972 0.0000e+00
      0.260     -0.012     6.1164     78.944     41.657  30.224636     1.5133      8.110   273.1852 6.9907e+02     6.6519      0.252      0.365    11.2819   999.5963 0.0000e+00
      0.257     -0.010     6.1150     78.500     41.670  30.229781     1.5300      8.102   273.2903 5.8934e+02     6.7382      0.254      0.367    11.2905   999.5955 0.0000e+00
      0.254     -0.007     6.1017     78.029     41.658  30.216580     1.5629      8.093   273.3207 5.0383e+02     6.8752      0.250      0.362    11.2948   999.5950 0.0000e+00
      0.252     -0.004     6.0818     77.590     41.625  30.191929     1.5810      8.086   273.4677 5.1908e+02     6.9315      0.243      0.355    11.2819   999.5964 0.0000e+00
      0.253     -0.000     6.0548     77.209     41.609  30.185534     1.5843      8.078   273.6907 5.3319e+02     6.8954      0.249      0.362    11.2738   999.5971 0.0000e+00
      0.254      0.004     6.0194     76.906     41.622  30.202734     1.5946      8.069   273.8657 5.0539e+02     6.8649      0.249      0.361    11.2728   999.5973 0.0000e+00
      0.254      0.008     5.9824     76.703     41.622  30.209532     1.6009      8.059   273.9494 5.3065e+02     6.8898      0.247      0.359    11.2623   999.5984 0.0000e+00
      0.256      0.011     5.9488     76.585     41.607  30.204278     1.5910      8.049   273.9282 5.4467e+02     6.9013      0.250      0.362    11.2605   999.5985 0.0000e+00
      0.260      0.011     5.9183     76.520     41.600  30.202670     1.5796      8.040   273.8670 5.7019e+02     6.8726      0.255      0.368    11.2688   999.5977 0.0000e+00
      0.265      0.010     5.8921     76.471     41.580  30.190093     1.6278      8.032   273.8125 6.6118e+02     6.8713      0.261      0.378    11.2792   999.5967 0.0000e+00
      0.270      0.007     5.8763     76.397     41.563  30.179124     1.7229      8.026   273.7840 6.9057e+02     6.8853      0.267      0.387    11.2890   999.5957 0.0000e+00
      0.272      0.002     5.8673     76.264     41.587  30.196953     1.7671      8.021   273.6955 6.2360e+02     6.8779      0.268      0.389    11.2951   999.5950 0.0000e+00
      0.270     -0.003     5.8626     76.084     41.612  30.215297     1.7722      8.015   273.6020 5.9673e+02     6.8795      0.265      0.386    11.2984   999.5947 0.0000e+00
      0.267     -0.008     5.8597     75.864     41.606  30.210558     1.7762      8.008   273.6867 6.1982e+02     6.8729      0.263      0.381    11.3006   999.5944 0.0000e+00
      0.264     -0.009     5.8554     75.594     41.596  30.203111     1.7625      8.002   273.8590 6.0337e+02     6.9293      0.259      0.375    11.3029   999.5941 0.0000e+00
      0.259     -0.005     5.8438     75.303     41.579  30.188702     1.7367      7.996   273.9641 6.7805e+02     7.0693      0.255      0.368    11.3035   999.5941 0.0000e+00
      0.254      0.000     5.8301     75.082     41.552  30.163250     1.7242      7.988   274.0113 7.8190e+02     7.1558      0.249      0.360    11.3036   999.5941 0.0000e+00
      0.254      0.005     5.8139     74.961     41.544  30.149193     1.7163      7.981   273.9994 7.8033e+02     7.1565      0.246      0.358    11.3032   999.5941 0.0000e+00
      0.260      0.008     5.7930     74.858     41.549  30.145637     1.6757      7.973   273.9066 7.6413e+02     7.0443      0.255      0.370    11.3031   999.5941 0.0000e+00
      0.268      0.008     5.7675     74.755     41.519  30.120247     1.6231      7.967   273.8359 7.7679e+02     6.8488      0.265      0.384    11.3026   999.5942 0.0000e+00
      0.273      0.005     5.7487     74.667     41.487  30.096017     1.5998      7.962   273.9183 9.6889e+02     6.7259      0.269      0.390    11.2954   999.5950 0.0000e+00
      0.273     -0.002     5.7474     74.592     41.502  30.106493     1.5937      7.957   274.0424 1.1165e+03     6.7051      0.269      0.390    11.2822   999.5964 0.0000e+00
      0.269     -0.009     5.7387     74.492     41.522  30.120004     1.6110      7.953   274.0468 9.8840e+02     6.6956      0.264      0.383    11.2724   999.5974 0.0000e+00
      0.264     -0.015     5.7314     74.303     41.542  30.132468     1.6439      7.948   273.9709 8.1975e+02     6.6770      0.260      0.377    11.2697   999.5976 0.0000e+00
      0.259     -0.017     5.7248     74.058     41.543  30.130273     1.6535      7.943   273.8988 6.7865e+02     6.6771      0.255      0.370    11.2691   999.5976 0.0000e+00
      0.253     -0.014     5.7192     73.824     41.499  30.093469     1.6486      7.938   273.8634 5.9074e+02     6.6633      0.248      0.359    11.2681   999.5977 0.0000e+00
      0.247     -0.009     5.7158     73.586     41.472  30.068194     1.6276      7.932   273.8874 6.2654e+02     6.6418      0.241      0.350    11.2672   999.5978 0.0000e+00
      0.244     -0.003     5.6991     73.331     41.494  30.078493     1.5997      7.927   274.0174 6.7168e+02     6.6797      0.238      0.345    11.2658   999.5979 0.0000e+00
      0.246      0.002     5.6779     73.090     41.520  30.091069     1.5967      7.922   274.1444 5.8243e+02     6.7281      0.240      0.347    11.2627   999.5983 0.0000e+00
      0.251      0.006     5.6622     72.853     41.531  30.093338     1.6006      7.916   274.1319 5.4189e+02     6.7349      0.247      0.357    11.2567   999.5989 0.0000e+00
      0.255      0.009     5.6466     72.623     41.555  30.105923     1.6203      7.910   274.0379 6.9429e+02     6.7620      0.251      0.364    11.2488   999.5997 0.0000e+00
      0.257      0.010     5.6245     72.399     41.575  30.116315     1.6705      7.902   273.9543 7.5462e+02     6.8259      0.253      0.366    11.2415   999.6005 0.0000e+00
      0.259      0.009     5.6094     72.148     41.546  30.092080     1.7047      7.894   273.8098 6.1346e+02     6.8852      0.254      0.368    11.2342   999.6013 0.0000e+00
      0.260      0.008     5.5911     71.883     41.515  30.066708     1.7128      7.889   273.6678 5.3657e+02     6.9219      0.254      0.369    11.2270   999.6020 0.0000e+00
      0.262      0.007     5.5738     71.646     41.515  30.063360     1.7164      7.883   273.7004 5.7577e+02     6.9418      0.257      0.373    11.2205   999.6027 0.0000e+00
      0.265      0.007     5.5594     71.441     41.505  30.051595     1.7051      7.877   273.6877 5.8183e+02     6.9292      0.260      0.378    11.2157   999.6033 0.0000e+00
      0.267      0.007     5.5395     71.232     41.514  30.051367     1.6716      7.872   273.5998 5.7983e+02     6.9011      0.262      0.380    11.2127   999.6036 0.0000e+00
      0.268      0.006     5.5185     71.023     41.537  30.060596     1.6490      7.867   273.5842 5.9614e+02     6.8967      0.263      0.381    11.2097   999.6040 0.0000e+00
      0.270      0.004     5.4998     70.818     41.513  30.036266     1.6574      7.861   273.5851 6.2067e+02     6.9088      0.265      0.383    11.2057   999.6043 0.0000e+00
      0.271      0.003     5.4876     70.617     41.487  30.010993     1.6959      7.856   273.6099 6.3659e+02     6.9813      0.266      0.386    11.1999   999.6049 0.0000e+00
      0.271      0.001     5.4708     70.403     41.492  30.008843     1.7503      7.851   273.7114 6.1474e+02     7.1186      0.267      0.388    11.1924   999.6057 0.0000e+00
      0.271      0.000     5.4565     70.149     41.502  30.010260     1.7770      7.845   273.8669 6.4599e+02     7.2255      0.266      0.387    11.1829   999.6067 0.0000e+00
      0.271     -0.001     5.4418     69.856     41.534  30.028123     1.7760      7.838   273.9407 6.9519e+02     7.2250      0.266      0.386    11.1732   999.6077 0.0000e+00
      0.270     -0.001     5.4275     69.531     41.636  30.097909     1.7902      7.831   273.9158 6.6571e+02     7.1780      0.265      0.385    11.1655   999.6084 0.0000e+00
      0.269      0.000     5.4138     69.213     41.799  30.219484     1.8183      7.825   273.8238 5.7200e+02     7.1820      0.264      0.383    11.1588   999.6092 0.0000e+00
      0.269      0.001     5.3937     68.953     41.870  30.292442     1.8298      7.820   273.6884 5.4535e+02     7.2069      0.264      0.383    11.1523   999.6099 0.0000e+00
      0.270      0.001     5.3728     68.838     41.804  30.282052     1.8260      7.815   273.6559 6.9088e+02     7.2165      0.264      0.382    11.1454   999.6105 0.0000e+00
      0.271      0.001     5.3473     69.106     41.751  30.284276     1.8070      7.810   273.6885 7.6521e+02     7.2332      0.266      0.384    11.1394   999.6112 0.0000e+00
      0.272      0.001     5.3208     70.066     41.756  30.319368     1.7812      7.806   273.6533 6.2053e+02     7.2774      0.267      0.387    11.1381   999.6114 0.0000e+00
      0.272      0.000     5.2980     71.861     41.735  30.325653     1.7659      7.801   273.6602 4.9486e+02     7.2924      0.268      0.388    11.1612   999.6091 0.0000e+00
      0.272     -0.003     5.2752     74.381     41.677  30.296833     1.7611      7.795   273.6857 4.8390e+02     7.2834      0.267      0.387    11.2170   999.6032 0.0000e+00
      0.271     -0.006     5.2786     77.299     41.653  30.288202     1.7487      7.790   273.5317 5.3374e+02     7.3325      0.266      0.385    11.2704   999.5976 0.0000e+00
      0.270     -0.011     5.3442     80.266     41.642  30.284761     1.7209      7.784   273.2603 6.7744e+02     7.3945      0.265      0.384    11.3061   999.5939 0.0000e+00
      0.267     -0.019     5.4808     83.043     41.598  30.255227     1.7107      7.776   273.1583 8.3542e+02     7.4100      0.262      0.381    11.3314   999.5912 0.0000e+00
      0.263     -0.034     5.6825     85.424     41.589  30.248389     1.7120      7.768   273.1579 8.0087e+02     7.3891      0.259      0.375    11.3463   999.5896 0.0000e+00
      0.257     -0.058     5.9152     87.234     41.615  30.265545     1.7016      7.759   272.9119 6.0900e+02     7.3384      0.254      0.368    11.3557   999.5886 0.0000e+00
      0.246     -0.095     6.1461     88.396     41.625  30.272292     1.6983      7.749   272.5071 4.9412e+02     7.1569      0.245      0.356    11.3616   999.5879 0.0000e+00
      0.226     -0.147     6.3638     88.957     41.616  30.266510     1.7502      7.739   272.2220 5.8839e+02     6.8668      0.226      0.327    11.3645   999.5876 0.0000e+00
      0.191     -0.208     6.5519     89.097     41.602  30.259095     2.2588      7.730   272.0460 8.8700e+02     6.8135      0.194      0.281    11.3633   999.5875 0.0000e+00
      0.135     -0.266     6.6920     89.002     41.581  30.246093     7.7094      7.720   271.8410 1.1453e+03     7.8890      0.144      0.210    11.3609   999.5875 0.0000e+00
      0.049     -0.305     6.7806     88.760     41.561  30.236219    67.5750      7.707   271.8938 1.2095e+03    19.4107      0.056      0.081    11.3598   999.5872 0.0000e+00
     -0.060     -0.311     6.8176     88.456     41.594  30.266630   177.2920      7.688   272.5992 1.2079e+03    40.4314     -0.058     -0.084    11.3617   999.5865 0.0000e+00
     -0.173     -0.277     6.8211     88.143     41.627  30.296523   236.6701      7.663   273.6588 1.1989e+03    51.8475     -0.174     -0.254    11.3647   999.5856 0.0000e+00
     -0.267     -0.201     6.8138     87.783     41.598  30.280376   236.6631      7.635   274.3798 1.1662e+03    52.7672     -0.278     -0.403    11.3655   999.5850 0.0000e+00
     -0.320     -0.090     6.7913     87.385     41.568  30.261771   177.2147      7.611   274.4346 1.1518e+03    51.3553     -0.332     -0.481    11.3714   999.5841 0.0000e+00
     -0.325      0.038     6.7633     86.964     41.563  30.261943    67.3751      7.595   274.1496 1.1753e+03    48.5412     -0.331     -0.481    11.3817   999.5830 0.0000e+00
     -0.288      0.158     6.7423     86.501     41.587  30.282451     7.4515      7.582   273.8583 1.2021e+03    46.9259     -0.297     -0.432    11.3888   999.5825 0.0000e+00
     -0.212      0.245     6.7125     86.028     41.634  30.319365     2.0165      7.574   273.4943 1.2168e+03    45.8838     -0.220     -0.319    11.3930   999.5824 0.0000e+00
     -0.107      0.285     6.6801     85.580     41.642  30.327543     1.5841      7.569   273.1032 1.1314e+03    36.0395     -0.106     -0.153    11.3976   999.5824 0.0000e+00
      0.003      0.278     6.6499     85.186     41.627  30.317879     1.6509      7.564   272.8301 9.1685e+02    18.0233      0.009      0.014    11.4020   999.5825 0.0000e+00
      0.094      0.235     6.6113     84.887     41.642  30.329433     1.7060      7.558   272.6870 7.4085e+02     8.1678      0.105      0.152    11.4055   999.5826 0.0000e+00
      0.149      0.171     6.5743     84.689     41.657  30.340318     1.7128      7.553   272.6636 7.3483e+02     7.2301      0.159      0.232    11.4088   999.5825 0.0000e+00
      0.168      0.106     6.5393     84.574     41.633  30.322583     1.7931      7.547   272.6331 7.6931e+02     7.1771      0.173      0.251    11.4118   999.5823 0.0000e+00
      0.163      0.054     6.5068     84.528     41.610  30.305367     1.9396      7.539   272.5762 6.9621e+02     7.2643      0.161      0.234    11.4141   999.5820 0.0000e+00
      0.153      0.023     6.4845     84.542     41.636  30.322527     2.0188      7.531   272.5786 7.5626e+02     7.3352      0.145      0.210    11.4142   999.5819 0.0000e+00
      0.151      0.009     6.4694     84.588     41.661  30.339701     2.0232      7.524   272.5758 9.5679e+02     7.3779      0.146      0.211    11.4137   999.5819 0.0000e+00
      0.156      0.005     6.4616     84.629     41.639  30.322642     2.0104      7.517   272.5423 8.7524e+02     7.3879      0.153      0.221    11.4142   999.5819 0.0000e+00
      0.166      0.005     6.4577     84.664     41.618  30.306635     2.0113      7.511   272.5180 6.3193e+02     7.3896      0.162      0.235    11.4136   999.5820 0.0000e+00
      0.175      0.005     6.4600     84.707     41.658  30.336525     2.0249      7.506   272.4545 7.7784e+02     7.3996      0.179      0.259    11.4118   999.5822 0.0000e+00
      0.173      0.002     6.4656     84.784     41.698  30.366770     2.0192      7.501   272.3755 1.1597e+03     7.3773      0.174      0.253    11.4097   999.5825 0.0000e+00
      0.164     -0.003     6.4680     84.896     41.682  30.355052     2.0118      7.496   272.3384 1.2224e+03     7.3489      0.158      0.227    11.4078   999.5826 0.0000e+00
      0.159     -0.007     6.4711     84.995     41.637  30.321751     2.0307      7.491   272.2637 9.8408e+02     7.3509      0.153      0.221    11.4079   999.5825 0.0000e+00
      0.160     -0.007     6.4728     85.047     41.583  30.281405     2.0654      7.486   272.2462 8.5462e+02     7.3698      0.157      0.229    11.4093   999.5825 0.0000e+00
      0.162     -0.005     6.4783     85.055     41.540  30.247955     2.0854      7.480   272.2983 9.1042e+02     7.3478      0.161      0.234    11.4107   999.5824 0.0000e+00
      0.161     -0.002     6.4888     85.029     41.526  30.234589     2.0898      7.474   272.2922 8.5767e+02     7.3136      0.159      0.229    11.4110   999.5823 0.0000e+00
      0.160     -0.002     6.4975     84.992     41.547  30.246698     2.1101      7.468   272.3445 7.7295e+02     7.3500      0.158      0.227    11.4097   999.5824 0.0000e+00
      0.159     -0.002     6.5010     84.942     41.579  30.267449     2.1402      7.462   272.4137 8.0260e+02     7.3955      0.154      0.225    11.4082   999.5825 0.0000e+00
      0.157     -0.001     6.5022     84.853     41.619  30.295127     2.1499      7.456   272.4410 8.5726e+02     7.4041      0.153      0.223    11.4062   999.5827 0.0000e+00
      0.157      0.002     6.4998     84.745     41.663  30.327534     2.1407      7.450   272.5883 1.0027e+03     7.4218      0.154      0.223    11.4023   999.5831 0.0000e+00
      0.157      0.006     6.4972     84.673     41.680  30.342002     2.1328      7.445   272.8188 1.2441e+03     7.3799      0.153      0.222    11.3973   999.5837 0.0000e+00
      0.159      0.010     6.4959     84.648     41.678  30.343142     2.1330      7.440   272.9902 1.2604e+03     7.2579      0.155      0.224    11.3937   999.5841 0.0000e+00
      0.163      0.013     6.4885     84.666     41.672  30.341323     2.1343      7.436   273.0264 9.7147e+02     7.1920      0.159      0.231    11.3930   999.5842 0.0000e+00
      0.168      0.014     6.4775     84.713     41.641  30.320009     2.1307      7.434   272.9121 7.2447e+02     7.1729      0.166      0.240    11.3938   999.5842 0.0000e+00
      0.173      0.013     6.4721     84.762     41.578  30.275800     2.0987      7.431   272.8129 7.2896e+02     7.1254      0.170      0.246    11.3958   999.5840 0.0000e+00
      0.177      0.010     6.4701     84.817     41.541  30.250981     2.0416      7.429   272.7736 9.2546e+02     7.1086      0.175      0.253    11.3989   999.5837 0.0000e+00
      0.180      0.006     6.4704     84.882     41.571  30.273755     2.0127      7.426   272.6946 9.8841e+02     7.1344      0.178      0.258    11.4018   999.5834 0.0000e+00
      0.180      0.002     6.4760     84.932     41.603  30.297344     2.0184      7.423   272.7176 8.7505e+02     7.1421      0.178      0.258    11.4039   999.5831 0.0000e+00
      0.178     -0.001     6.4782     84.962     41.583  30.282364     2.0244      7.421   272.8797 7.8343e+02     7.1357      0.175      0.254    11.4058   999.5829 0.0000e+00
      0.176     -0.004     6.4819     84.974     41.585  30.283001     2.0504      7.418   272.9345 8.3455e+02     7.1231      0.172      0.250    11.4079   999.5826 0.0000e+00
      0.176     -0.006     6.4883     84.980     41.617  30.305045     2.1071      7.414   272.7778 1.0626e+03     7.1211      0.173      0.251    11.4098   999.5824 0.0000e+00
      0.176     -0.008     6.4912     84.988     41.606  30.295084     2.1372      7.411   272.6197 1.1743e+03     7.1438      0.174      0.252    11.4102   999.5824 0.0000e+00
      0.174     -0.008     6.4943     84.997     41.601  30.289472     2.1370      7.408   272.5717 1.0436e+03     7.1688      0.172      0.249    11.4095   999.5825 0.0000e+00
      0.171     -0.009     6.4945     85.005     41.618  30.300646     2.1050      7.405   272.6280 8.9051e+02     7.2260      0.168      0.243    11.4088   999.5825 0.0000e+00
      0.167     -0.009     6.4950     84.995     41.625  30.303273     2.0447      7.402   272.7842 8.6982e+02     7.3105      0.162      0.236    11.4067   999.5827 0.0000e+00
      0.164     -0.009     6.4966     84.975     41.653  30.321232     2.0242      7.401   272.9108 8.7051e+02     7.3387      0.161      0.233    11.4037   999.5830 0.0000e+00
      0.162     -0.007     6.4968     84.972     41.663  30.327415     2.0221      7.398   272.9550 8.6673e+02     7.3378      0.159      0.231    11.4018   999.5832 0.0000e+00
      0.160     -0.003     6.4989     84.992     41.647  30.314577     1.9926      7.391   272.9736 9.5249e+02     7.4316      0.157      0.228    11.4004   999.5834 0.0000e+00
      0.159      0.002     6.4981     85.004     41.619  30.292919     1.9628      7.383   273.0501 1.0714e+03     7.5547      0.156      0.226    11.3980   999.5836 0.0000e+00
      0.158      0.009     6.4961     85.029     41.572  30.255910     1.9559      7.375   273.1918 1.1040e+03     7.5810      0.153      0.224    11.3950   999.5840 0.0000e+00
      0.160      0.017     6.4955     85.092     41.564  30.247832     1.9689      7.368   273.3966 1.0126e+03     7.5854      0.156      0.226    11.3931   999.5842 0.0000e+00
      0.165      0.026     6.4990     85.148     41.581  30.258701     2.0337      7.362   273.6331 8.6051e+02     7.6074      0.161      0.233    11.3924   999.5842 0.0000e+00
      0.173      0.033     6.4997     85.192     41.583  30.260412     2.1422      7.357   273.7278 7.2730e+02     7.6182      0.167      0.243    11.3909   999.5845 0.0000e+00
      0.186      0.036     6.4992     85.241     41.594  30.268525     2.1966      7.352   273.6814 8.2205e+02     7.6171      0.182      0.263    11.3871   999.5849 0.0000e+00
      0.200      0.036     6.5086     85.281     41.629  30.293338     2.1976      7.348   273.6744 9.4130e+02     7.6273      0.198      0.287    11.3830   999.5853 0.0000e+00
      0.212      0.032     6.5120     85.318     41.647  30.306593     2.1977      7.346   273.6425 8.7422e+02     7.5451      0.209      0.303    11.3823   999.5855 0.0000e+00
      0.219      0.024     6.5142     85.357     41.642  30.301887     2.1981      7.345   273.5545 8.2241e+02     7.3116      0.217      0.314    11.3830   999.5855 0.0000e+00
      0.223      0.014     6.5198     85.393     41.640  30.299898     2.2018      7.345   273.5574 7.9892e+02     7.1632      0.219      0.318    11.3825   999.5856 0.0000e+00
      0.226      0.005     6.5218     85.426     41.615  30.282539     2.2078      7.345   273.6770 8.2213e+02     7.1601      0.222      0.321    11.3823   999.5856 0.0000e+00
      0.226     -0.001     6.5246     85.445     41.614  30.282368     2.2098      7.345   273.7956 8.7268e+02     7.1763      0.223      0.324    11.3819   999.5857 0.0000e+00
      0.222     -0.003     6.5281     85.451     41.634  30.297831     2.2183      7.343   273.7871 8.9930e+02     7.0969      0.218      0.317    11.3812   999.5857 0.0000e+00
      0.217     -0.001     6.5303     85.454     41.609  30.279134     2.2411      7.341   273.7463 8.8975e+02     6.9535      0.212      0.307    11.3808   999.5858 0.0000e+00
      0.213      0.003     6.5338     85.445     41.565  30.246673     2.2594      7.340   273.7330 8.6813e+02     6.9171      0.207      0.302    11.3813   999.5857 0.0000e+00
      0.215      0.006     6.5349     85.441     41.532  30.222616     2.2664      7.337   273.7121 8.8078e+02     6.9514      0.209      0.304    11.3822   999.5856 0.0000e+00
      0.222      0.008     6.5345     85.451     41.558  30.242081     2.3343      7.333   273.7511 8.8921e+02     6.9416      0.218      0.317    11.3829   999.5856 0.0000e+00
      0.229      0.010     6.5360     85.469     41.626  30.291662     2.4735      7.332   273.7747 7.9926e+02     6.8974      0.227      0.329    11.3826   999.5856 0.0000e+00
      0.231      0.014     6.5341     85.498     41.656  30.314449     2.5528      7.331   273.8260 6.8286e+02     6.8767      0.229      0.332    11.3820   999.5857 0.0000e+00
      0.231      0.023     6.5337     85.538     41.671  30.327234     2.5563      7.326   274.0264 7.0325e+02     6.9201      0.228      0.329    11.3824   999.5856 0.0000e+00
      0.231      0.036     6.5349     85.581     41.659  30.319339     2.4904      7.317   274.2190 9.0199e+02     7.1597      0.226      0.327    11.3826   999.5856 0.0000e+00
      0.235      0.048     6.5359     85.632     41.609  30.282441     2.3548      7.307   274.2625 1.0379e+03     7.5462      0.225      0.327    11.3830   999.5856 0.0000e+00
      0.250      0.052     6.5379     85.697     41.584  30.261832     2.2768      7.301   274.2070 9.0378e+02     7.7587      0.238      0.346    11.3838   999.5855 0.0000e+00
      0.280      0.045     6.5412     85.729     41.586  30.260526     2.2676      7.299   274.1505 7.3838e+02     7.7619      0.274      0.398    11.3858   999.5855 0.0000e+00
      0.311      0.030     6.5438     85.709     41.595  30.266648     2.2344      7.298   274.1825 6.7924e+02     7.4540      0.311      0.452    11.3886   999.5854 0.0000e+00
      0.325      0.011     6.5469     85.687     41.602  30.272401     2.1789      7.297   274.3359 6.7098e+02     6.8547      0.330      0.478    11.3879   999.5855 0.0000e+00
      0.313     -0.006     6.5543     85.666     41.594  30.266631     2.1520      7.293   274.4558 6.6629e+02     6.5137      0.314      0.456    11.3835   999.5859 0.0000e+00
      0.285     -0.016     6.5595     85.629     41.588  30.260333     2.1517      7.288   274.5141 7.1325e+02     6.5095      0.274      0.399    11.3793   999.5862 0.0000e+00
      0.265     -0.019     6.5540     85.594     41.592  30.259709     2.1921      7.283   274.5239 7.8128e+02     6.7379      0.251      0.364    11.3788   999.5861 0.0000e+00
      0.264     -0.013     6.5530     85.545     41.595  30.259085     2.2678      7.278   274.4887 7.1906e+02     7.1454      0.254      0.369    11.3812   999.5859 0.0000e+00
      0.275      0.002     6.5528     85.481     41.589  30.252778     2.3129      7.276   274.6052 5.7673e+02     7.3724      0.269      0.390    11.3815   999.5859 0.0000e+00
      0.287      0.020     6.5480     85.433     41.582  30.246904     2.3305      7.276   274.8142 5.4047e+02     7.3858      0.286      0.414    11.3789   999.5863 0.0000e+00
      0.291      0.035     6.5476     85.406     41.590  30.251529     2.3332      7.275   274.9504 5.9749e+02     7.3727      0.289      0.420    11.3748   999.5867 0.0000e+00
      0.289      0.047     6.5446     85.385     41.585  30.245232     2.3618      7.270   275.1331 6.4729e+02     7.4757      0.280      0.406    11.3700   999.5872 0.0000e+00
      0.295      0.054     6.5386     85.389     41.572  30.234215     2.4419      7.265   275.3022 6.4329e+02     7.6817      0.282      0.409    11.3675   999.5875 0.0000e+00
      0.318      0.058     6.5349     85.432     41.590  30.245231     2.4954      7.262   275.3605 5.3548e+02     7.7986      0.310      0.450    11.3675   999.5876 0.0000e+00
      0.347      0.061     6.5344     85.492     41.600  30.251519     2.5068      7.262   275.5793 4.5932e+02     7.8076      0.344      0.499    11.3660   999.5879 0.0000e+00
      0.371      0.062     6.5320     85.547     41.595  30.246793     2.5365      7.262   276.0552 4.5222e+02     7.7576      0.368      0.533    11.3630   999.5884 0.0000e+00
      0.382      0.060     6.5320     85.588     41.603  30.251535     2.5946      7.262   276.4692 4.4340e+02     7.6851      0.378      0.548    11.3610   999.5886 0.0000e+00
      0.386      0.056     6.5365     85.619     41.596  30.245404     2.6277      7.260   276.7122 4.5794e+02     7.6520      0.377      0.547    11.3584   999.5889 0.0000e+00
      0.393      0.053     6.5422     85.650     41.585  30.236104     2.6253      7.257   277.0147 4.7093e+02     7.6522      0.382      0.554    11.3566   999.5891 0.0000e+00
      0.410      0.052     6.5465     85.664     41.627  30.265999     2.6254      7.254   277.3731 4.5693e+02     7.6554      0.400      0.581    11.3564   999.5892 0.0000e+00
      0.430      0.052     6.5497     85.644     41.661  30.289593     2.6374      7.251   277.6045 4.5663e+02     7.6582      0.424      0.615    11.3552   999.5894 0.0000e+00
      0.448      0.052     6.5517     85.606     41.631  30.267558     2.6503      7.250   277.7483 4.7280e+02     7.6528      0.442      0.640    11.3532   999.5898 0.0000e+00
      0.461      0.051     6.5552     85.570     41.612  30.253398     2.6510      7.250   277.9930 4.4419e+02     7.6237      0.454      0.658    11.3514   999.5900 0.0000e+00
      0.469      0.049     6.5573     85.555     41.601  30.245295     2.6536      7.251   278.3255 3.7659e+02     7.5021      0.460      0.668    11.3503   999.5901 0.0000e+00
      0.476      0.047     6.5548     85.551     41.584  30.233036     2.6817      7.251   278.5850 3.4110e+02     7.2967      0.465      0.674    11.3496   999.5903 0.0000e+00
      0.488      0.047     6.5521     85.543     41.583  30.232077     2.7052      7.251   278.7223 4.0031e+02     7.1721      0.476      0.691    11.3494   999.5903 0.0000e+00
      0.505      0.047     6.5481     85.530     41.586  30.233701     2.6952      7.251   278.8667 4.8820e+02     7.1435      0.496      0.719    11.3492   999.5904 0.0000e+00
      0.520      0.048     6.5476     85.523     41.612  30.252676     2.6821      7.251   279.1258 4.6262e+02     7.0811      0.511      0.741    11.3487   999.5905 0.0000e+00
      0.533      0.048     6.5478     85.541     41.637  30.271136     2.6859      7.251   279.3598 3.8347e+02     6.9756      0.524      0.760    11.3489   999.5906 0.0000e+00
      0.543      0.046     6.5470     85.576     41.631  30.266535     2.6890      7.251   279.4595 3.4935e+02     6.9159      0.534      0.774    11.3491   999.5906 0.0000e+00
      0.552      0.044     6.5462     85.612     41.622  30.260499     2.6844      7.250   279.5574 3.3482e+02     6.9162      0.540      0.782    11.3489   999.5906 0.0000e+00
      0.562      0.044     6.5440     85.635     41.624  30.261599     2.6828      7.250   279.7679 3.3250e+02     6.9468      0.551      0.799    11.3490   999.5907 0.0000e+00
      0.575      0.044     6.5469     85.647     41.649  30.279845     2.6957      7.250   279.9399 3.3871e+02     7.1876      0.564      0.818    11.3491   999.5908 0.0000e+00
      0.588      0.044     6.5489     85.645     41.664  30.290749     2.7097      7.250   280.0026 3.3377e+02     7.6318      0.575      0.834    11.3490   999.5908 0.0000e+00
      0.601      0.041     6.5529     85.622     41.631  30.266529     2.7043      7.248   280.0958 3.2312e+02     7.8940      0.589      0.854    11.3487   999.5909 0.0000e+00
      0.612      0.036     6.5543     85.588     41.596  30.240823     2.6917      7.247   280.2072 3.2447e+02     7.9002      0.601      0.872    11.3485   999.5910 0.0000e+00
      0.621      0.031     6.5550     85.537     41.587  30.233754     2.6872      7.246   280.2302 3.2165e+02     7.7392      0.610      0.885    11.3485   999.5910 0.0000e+00
      0.627      0.027     6.5561     85.479     41.603  30.244511     2.6851      7.243   280.2020 3.1001e+02     7.5198      0.616      0.895    11.3485   999.5911 0.0000e+00
      0.630      0.026     6.5525     85.418     41.604  30.243977     2.6841      7.241   280.2970 3.1232e+02     7.4110      0.618      0.897    11.3483   999.5911 0.0000e+00
      0.634      0.028     6.5518     85.338     41.582  30.227293     2.6912      7.240   280.5184 3.1703e+02     7.3734      0.621      0.900    11.3476   999.5912 0.0000e+00
      0.640      0.032     6.5466     85.254     41.592  30.233156     2.7110      7.238   280.7280 3.0129e+02     7.3603      0.627      0.909    11.3468   999.5913 0.0000e+00
      0.649      0.037     6.5425     85.197     41.617  30.251406     2.7411      7.235   280.8521 2.7401e+02     7.3832      0.636      0.922    11.3462   999.5914 0.0000e+00
      0.661      0.042     6.5390     85.167     41.627  30.257587     2.7599      7.232   280.9008 2.5431e+02     7.4212      0.648      0.940    11.3445   999.5917 0.0000e+00
      0.674      0.045     6.5323     85.159     41.612  30.244433     2.7654      7.231   280.9726 2.4709e+02     7.4265      0.661      0.958    11.3427   999.5919 0.0000e+00
      0.687      0.045     6.5250     85.172     41.582  30.219269     2.8244      7.229   281.1170 2.4192e+02     7.5126      0.674      0.977    11.3418   999.5920 0.0000e+00
      0.700      0.043     6.5205     85.185     41.569  30.207148     2.9363      7.227   281.2699 2.3064e+02     7.7418      0.687      0.996    11.3417   999.5921 0.0000e+00
      0.712      0.040     6.5191     85.207     41.595  30.224780     2.9992      7.227   281.3593 2.2562e+02     7.8703      0.700      1.014    11.3416   999.5922 0.0000e+00
      0.721      0.039     6.5177     85.227     41.620  30.242085     3.0131      7.226   281.4237 2.2547e+02     7.8546      0.709      1.028    11.3388   999.5924 0.0000e+00
      0.727      0.039     6.5217     85.226     41.600  30.226027     3.0865      7.225   281.5324 2.2287e+02     7.7810      0.712      1.033    11.3343   999.5930 0.0000e+00
      0.733      0.043     6.5215     85.217     41.597  30.220987     3.2191      7.222   281.6405 2.2391e+02     7.6363      0.717      1.040    11.3307   999.5934 0.0000e+00
      0.744      0.048     6.5239     85.204     41.632  30.244601     3.2904      7.219   281.6982 2.1899e+02     7.5458      0.729      1.057    11.3290   999.5936 0.0000e+00
      0.758      0.054     6.5275     85.204     41.652  30.257717     3.2984      7.216   281.8002 2.0863e+02     7.5721      0.743      1.077    11.3284   999.5938 0.0000e+00
      0.775      0.059     6.5252     85.221     41.646  30.252658     3.2988      7.213   281.9269 2.0273e+02     7.5936      0.759      1.102    11.3266   999.5940 0.0000e+00
      0.795      0.061     6.5269     85.235     41.640  30.246888     3.2515      7.210   281.8544 1.9783e+02     7.5112      0.781      1.133    11.3229   999.5945 0.0000e+00
      0.812      0.058     6.5245     85.235     41.646  30.251409     3.1610      7.209   281.6974 1.9557e+02     7.3951      0.797      1.156    11.3204   999.5949 0.0000e+00
      0.826      0.052     6.5247     85.222     41.636  30.243864     3.1150      7.208   281.7504 1.9453e+02     7.3694      0.810      1.175    11.3194   999.5950 0.0000e+00
      0.839      0.044     6.5274     85.217     41.601  30.219116     3.1196      7.208   281.8924 1.8917e+02     7.3970      0.824      1.195    11.3181   999.5952 0.0000e+00
      0.850      0.037     6.5281     85.226     41.583  30.206000     3.1385      7.208   281.9509 1.8745e+02     7.3359      0.835      1.211    11.3170   999.5954 0.0000e+00
      0.857      0.031     6.5292     85.221     41.593  30.212193     3.1614      7.208   281.9417 1.9124e+02     7.1872      0.841      1.221    11.3165   999.5955 0.0000e+00
      0.861      0.029     6.5265     85.206     41.618  30.230539     3.1707      7.208   281.9541 1.9130e+02     7.1064      0.843      1.223    11.3168   999.5955 0.0000e+00
      0.866      0.030     6.5261     85.211     41.628  30.237451     3.1732      7.208   282.1001 1.9090e+02     7.1135      0.849      1.231    11.3172   999.5955 0.0000e+00
      0.872      0.033     6.5280     85.236     41.621  30.232310     3.1740      7.206   282.3315 1.8933e+02     7.1754      0.856      1.242    11.3170   999.5955 0.0000e+00
      0.881      0.037     6.5282     85.275     41.621  30.231838     3.1721      7.203   282.5145 1.8431e+02     7.2971      0.862      1.250    11.3163   999.5956 0.0000e+00
      0.893      0.038     6.5248     85.348     41.622  30.231743     3.1676      7.202   282.5909 1.8095e+02     7.3716      0.873      1.267    11.3158   999.5957 0.0000e+00
      0.908      0.038     6.5262     85.428     41.622  30.231158     3.1720      7.201   282.6528 1.7549e+02     7.3558      0.891      1.293    11.3155   999.5959 0.0000e+00
      0.919      0.038     6.5288     85.492     41.615  30.224759     3.2419      7.199   282.7469 1.7005e+02     7.3352      0.904      1.310    11.3154   999.5959 0.0000e+00
      0.926      0.039     6.5297     85.550     41.607  30.217836     3.3624      7.198   282.7821 1.7044e+02     7.3525      0.910      1.318    11.3152   999.5960 0.0000e+00
      0.931      0.040     6.5373     85.606     41.599  30.210904     3.4236      7.197   282.8204 1.7365e+02     7.3680      0.912      1.323    11.3145   999.5960 0.0000e+00
      0.938      0.044     6.5443     85.626     41.590  30.204398     3.4187      7.196   282.8657 1.7142e+02     7.3584      0.917      1.331    11.3135   999.5961 0.0000e+00
      0.950      0.051     6.5488     85.607     41.589  30.202619     3.4167      7.194   282.8145 1.6365e+02     7.3676      0.931      1.350    11.3124   999.5963 0.0000e+00
      0.967      0.057     6.5527     85.587     41.574  30.189399     3.4250      7.190   282.8031 1.5828e+02     7.3807      0.948      1.375    11.3109   999.5966 0.0000e+00
      0.985      0.059     6.5588     85.553     41.554  30.171460     3.4322      7.186   282.8139 1.5393e+02     7.3533      0.965      1.400    11.3100   999.5968 0.0000e+00
      1.004      0.055     6.5613     85.513     41.565  30.176084     3.4343      7.184   282.7732 1.4860e+02     7.3318      0.984      1.428    11.3097   999.5969 0.0000e+00
      1.022      0.047     6.5564     85.482     41.576  30.181854     3.4240      7.184   282.8268 1.4625e+02     7.3176      1.004      1.458    11.3091   999.5971 0.0000e+00
      1.034      0.039     6.5578     85.441     41.573  30.177759     3.3780      7.184   282.8600 1.4626e+02     7.1483      1.017      1.476    11.3069   999.5973 0.0000e+00
      1.039      0.034     6.5549     85.395     41.591  30.190024     3.2938      7.183   282.8300 1.4610e+02     6.8573      1.019      1.479    11.3022   999.5978 0.0000e+00
      1.039      0.035     6.5515     85.355     41.611  30.203244     3.2386      7.182   282.9809 1.4576e+02     6.6834      1.019      1.478    11.2973   999.5984 0.0000e+00
      1.041      0.041     6.5516     85.336     41.623  30.210687     3.2298      7.180   283.2217 1.4267e+02     6.6846      1.018      1.477    11.2939   999.5987 0.0000e+00
      1.050      0.049     6.5475     85.319     41.633  30.216560     3.2054      7.177   283.2457 1.3809e+02     6.9041      1.026      1.487    11.2918   999.5989 0.0000e+00
      1.069      0.056     6.5447     85.286     41.628  30.210790     3.1599      7.177   283.1855 1.3427e+02     7.2401      1.047      1.519    11.2902   999.5992 0.0000e+00
      1.094      0.057     6.5402     85.242     41.620  30.204385     3.1392      7.177   283.2683 1.2944e+02     7.4045      1.073      1.557    11.2893   999.5995 0.0000e+00
      1.115      0.054     6.5405     85.199     41.618  30.202570     3.1373      7.177   283.3004 1.2501e+02     7.3844      1.097      1.592    11.2885   999.5996 0.0000e+00
      1.130      0.047     6.5398     85.166     41.600  30.188840     3.2143      7.178   283.2290 1.2140e+02     7.2587      1.112      1.613    11.2866   999.5999 0.0000e+00
      1.135      0.041     6.5370     85.122     41.570  30.165284     3.3853      7.179   283.2661 1.1892e+02     7.0646      1.115      1.617    11.2845   999.6002 0.0000e+00
      1.136      0.040     6.5341     85.058     41.582  30.171577     3.4887      7.180   283.3182 1.1845e+02     6.9385      1.113      1.615    11.2829   999.6003 0.0000e+00
      1.141      0.043     6.5296     84.990     41.628  30.201470     3.4939      7.182   283.1708 1.1735e+02     6.9147      1.116      1.619    11.2822   999.6004 0.0000e+00
      1.152      0.049     6.5289     84.925     41.644  30.209432     3.4134      7.182   283.0331 1.1451e+02     7.1043      1.127      1.635    11.2817   999.6005 0.0000e+00
      1.171      0.055     6.5257     84.880     41.641  30.204392     3.2605      7.181   283.0302 1.1088e+02     7.4941      1.148      1.664    11.2804   999.6007 0.0000e+00
      1.192      0.060     6.5204     84.872     41.642  30.203986     3.1715      7.181   283.0488 1.0717e+02     7.6944      1.170      1.697    11.2771   999.6012 0.0000e+00
      1.211      0.061     6.5161     84.890     41.642  30.204516     3.1606      7.182   283.0860 1.0405e+02     7.6252      1.190      1.726    11.2723   999.6018 0.0000e+00
      1.225      0.058     6.5115     84.925     41.650  30.210805     3.1556      7.183   283.1355 1.0183e+02     7.4445      1.203      1.745    11.2681   999.6023 0.0000e+00
      1.236      0.052     6.5074     84.980     41.657  30.216563     3.1453      7.184   283.2176 9.9584e+01     7.2458      1.210      1.756    11.2645   999.6028 0.0000e+00
      1.249      0.045     6.5080     85.047     41.648  30.210681     3.1394      7.183   283.2184 9.6808e+01     7.1573      1.225      1.776    11.2630   999.6030 0.0000e+00
      1.262      0.040     6.5096     85.094     41.638  30.203143     3.1373      7.183   283.1446 9.4953e+01     7.1609      1.240      1.798    11.2641   999.6029 0.0000e+00
      1.272      0.037     6.5113     85.095     41.619  30.188883     3.1288      7.182   283.2728 9.4080e+01     7.1580      1.248      1.809    11.2651   999.6028 0.0000e+00
      1.279      0.036     6.5160     85.056     41.589  30.165167     3.1228      7.180   283.5641 9.3215e+01     7.1878      1.254      1.819    11.2654   999.6028 0.0000e+00
      1.286      0.038     6.5217     84.993     41.599  30.170207     3.1256      7.177   283.6550 9.2473e+01     7.2916      1.262      1.830    11.2663   999.6028 0.0000e+00
      1.292      0.041     6.5265     84.913     41.624  30.186367     3.1274      7.173   283.5972 9.0977e+01     7.3643      1.267      1.838    11.2670   999.6027 0.0000e+00
      1.302      0.045     6.5262     84.846     41.603  30.170196     3.1274      7.169   283.6397 8.8507e+01     7.3783      1.275      1.849    11.2662   999.6028 0.0000e+00
      1.317      0.047     6.5229     84.809     41.598  30.165041     3.1092      7.166   283.7389 8.6316e+01     7.3624      1.290      1.871    11.2636   999.6032 0.0000e+00
      1.334      0.046     6.5190     84.784     41.630  30.187499     3.0804      7.163   283.7633 8.4523e+01     7.3358      1.308      1.897    11.2602   999.6036 0.0000e+00
      1.350      0.045     6.5120     84.774     41.631  30.187915     3.0739      7.163   283.6771 8.2866e+01     7.3519      1.325      1.922    11.2575   999.6040 0.0000e+00
      1.361      0.045     6.5062     84.800     41.606  30.170072     3.0651      7.164   283.6436 8.1635e+01     7.3929      1.336      1.938    11.2562   999.6042 0.0000e+00
      1.367      0.045     6.5048     84.840     41.595  30.162118     3.0178      7.165   283.7020 8.0703e+01     7.5375      1.341      1.945    11.2554   999.6043 0.0000e+00
      1.372      0.047     6.5030     84.870     41.589  30.155206     2.9525      7.166   283.6941 7.9371e+01     7.7560      1.343      1.948    11.2538   999.6045 0.0000e+00
      1.384      0.051     6.5010     84.893     41.586  30.149944     2.9256      7.166   283.6345 7.7768e+01     7.8399      1.354      1.964    11.2528   999.6046 0.0000e+00
      1.402      0.056     6.5038     84.902     41.606  30.161953     2.9442      7.166   283.6695 7.5987e+01     7.8309      1.376      1.995    11.2546   999.6045 0.0000e+00
      1.420      0.058     6.5082     84.902     41.626  30.173491     2.9865      7.166   283.7744 7.3487e+01     7.7782      1.392      2.020    11.2547   999.6046 0.0000e+00
      1.437      0.057     6.5098     84.897     41.613  30.162531     3.0300      7.165   283.7841 7.0800e+01     7.6613      1.409      2.042    11.2510   999.6051 0.0000e+00
      1.454      0.053     6.5130     84.844     41.605  30.156341     3.0533      7.165   283.7861 6.8748e+01     7.5963      1.428      2.070    11.2472   999.6055 0.0000e+00
      1.468      0.049     6.5141     84.728     41.614  30.162110     3.0688      7.163   283.9709 6.7579e+01     7.6481      1.441      2.091    11.2441   999.6059 0.0000e+00
      1.477      0.048     6.5134     84.591     41.624  30.168824     3.1048      7.160   284.2106 6.7237e+01     7.7634      1.449      2.102    11.2411   999.6063 0.0000e+00
      1.482      0.050     6.5156     84.463     41.631  30.174074     3.1584      7.156   284.3620 6.6728e+01     7.8435      1.453      2.107    11.2392   999.6065 0.0000e+00
      1.492      0.054     6.5125     84.346     41.614  30.162121     3.1795      7.153   284.4249 6.5266e+01     7.8626      1.459      2.116    11.2382   999.6066 0.0000e+00
      1.508      0.059     6.5015     84.234     41.598  30.151209     3.1789      7.151   284.4548 6.3170e+01     7.8638      1.477      2.142    11.2373   999.6068 0.0000e+00
      1.528      0.061     6.4901     84.099     41.623  30.169053     3.1856      7.150   284.4659 6.1046e+01     7.8250      1.498      2.173    11.2369   999.6069 0.0000e+00
      1.550      0.059     6.4812     83.951     41.649  30.187503     3.2001      7.149   284.4727 5.9066e+01     7.7219      1.520      2.204    11.2372   999.6071 0.0000e+00
      1.569      0.054     6.4711     83.833     41.644  30.183918     3.2320      7.148   284.5375 5.7573e+01     7.6320      1.541      2.235    11.2379   999.6071 0.0000e+00
      1.581      0.049     6.4642     83.746     41.651  30.189166     3.2512      7.149   284.5605 5.6866e+01     7.6232      1.553      2.253    11.2381   999.6071 0.0000e+00
      1.587      0.046     6.4540     83.684     41.649  30.187502     3.2497      7.149   284.5785 5.6629e+01     7.6483      1.556      2.257    11.2378   999.6071 0.0000e+00
      1.591      0.045     6.4397     83.634     41.617  30.163805     3.2487      7.150   284.5830 5.6345e+01     7.6403      1.558      2.261    11.2380   999.6072 0.0000e+00
      1.601      0.045     6.4322     83.595     41.607  30.156457     3.2473      7.152   284.4434 5.5347e+01     7.6254      1.567      2.273    11.2383   999.6071 0.0000e+00
      1.616      0.048     6.4247     83.575     41.616  30.162121     3.2416      7.153   284.3529 5.3699e+01     7.6316      1.584      2.298    11.2382   999.6072 0.0000e+00
      1.634      0.050     6.4210     83.560     41.626  30.168825     3.2323      7.154   284.3485 5.2373e+01     7.6165      1.604      2.327    11.2378   999.6074 0.0000e+00
      1.649      0.047     6.4173     83.530     41.633  30.174060     3.1609      7.154   284.3045 5.1686e+01     7.5082      1.618      2.347    11.2369   999.6075 0.0000e+00
      1.661      0.042     6.4133     83.475     41.616  30.161965     3.0193      7.155   284.3380 5.0903e+01     7.3061      1.629      2.362    11.2362   999.6076 0.0000e+00
      1.672      0.036     6.4133     83.414     41.599  30.149483     2.9336      7.155   284.4090 5.0101e+01     7.1711      1.641      2.380    11.2354   999.6078 0.0000e+00
      1.678      0.034     6.4121     83.366     41.600  30.150050     2.9235      7.155   284.4749 4.9825e+01     7.1546      1.647      2.391    11.2350   999.6079 0.0000e+00
      1.680      0.034     6.4108     83.333     41.626  30.168826     2.9052      7.155   284.5328 4.9573e+01     7.1724      1.648      2.390    11.2352   999.6079 0.0000e+00
      1.685      0.035     6.4054     83.311     41.651  30.186132     2.8589      7.154   284.5059 4.8809e+01     7.1900      1.650      2.392    11.2353   999.6078 0.0000e+00
      1.696      0.036     6.4003     83.304     41.627  30.168939     2.8238      7.154   284.5804 4.7770e+01     7.1707      1.663      2.411    11.2353   999.6079 0.0000e+00
      1.711      0.037     6.3965     83.324     41.603  30.151313     2.8197      7.154   284.7448 4.6837e+01     7.1357      1.680      2.436    11.2354   999.6080 0.0000e+00
      1.725      0.038     6.3945     83.383     41.620  30.163378     2.8432      7.155   284.7736 4.6182e+01     7.1273      1.694      2.456    11.2350   999.6081 0.0000e+00
      1.733      0.039     6.3926     83.461     41.654  30.187908     2.8735      7.155   284.7565 4.5712e+01     7.1340      1.701      2.468    11.2345   999.6082 0.0000e+00
      1.738      0.042     6.3918     83.511     41.662  30.194083     2.8820      7.155   284.7957 4.5257e+01     7.1510      1.703      2.471    11.2344   999.6082 0.0000e+00
      1.745      0.045     6.3929     83.533     41.636  30.174583     2.8864      7.154   284.8175 4.4762e+01     7.1373      1.709      2.479    11.2344   999.6082 0.0000e+00
      1.755      0.048     6.3974     83.543     41.593  30.142498     2.8920      7.151   284.9340 4.3852e+01     7.0996      1.719      2.494    11.2342   999.6083 0.0000e+00
      1.772      0.049     6.4060     83.523     41.567  30.123418     2.9407      7.148   285.0850 4.2379e+01     7.1215      1.735      2.518    11.2341   999.6084 0.0000e+00
      1.792      0.049     6.4092     83.468     41.582  30.134260     3.0506      7.146   285.0094 4.1006e+01     7.1719      1.759      2.551    11.2336   999.6086 0.0000e+00
      1.808      0.048     6.4101     83.415     41.600  30.146680     3.1188      7.146   284.9666 4.0274e+01     7.1845      1.776      2.577    11.2333   999.6087 0.0000e+00
      1.818      0.047     6.4117     83.383     41.600  30.146674     3.1243      7.146   285.0833 3.9971e+01     7.1753      1.784      2.587    11.2329   999.6087 0.0000e+00
      1.823      0.045     6.4112     83.371     41.583  30.134183     3.0739      7.145   285.1295 3.9690e+01     7.2253      1.787      2.592    11.2324   999.6088 0.0000e+00
      1.830      0.043     6.4048     83.380     41.568  30.122562     2.9782      7.144   285.1819 3.9025e+01     7.3298      1.792      2.599    11.2318   999.6089 0.0000e+00
      1.843      0.042     6.4005     83.401     41.583  30.133070     2.9288      7.144   285.1999 3.7894e+01     7.3898      1.805      2.618    11.2314   999.6090 0.0000e+00
      1.859      0.039     6.3990     83.418     41.584  30.134324     2.9270      7.143   285.0893 3.6847e+01     7.3938      1.824      2.645    11.2312   999.6091 0.0000e+00
      1.874      0.035     6.3969     83.380     41.589  30.137723     2.9046      7.141   285.0483 3.6246e+01     7.2795      1.839      2.668    11.2310   999.6092 0.0000e+00
      1.883      0.030     6.3991     83.270     41.639  30.174163     2.8571      7.141   285.1351 3.6136e+01     7.0895      1.849      2.682    11.2305   999.6093 0.0000e+00
      1.885      0.025     6.3998     83.162     41.667  30.194196     2.8305      7.142   285.1925 3.6326e+01     6.9985      1.849      2.683    11.2303   999.6093 0.0000e+00
      1.885      0.024     6.4034     83.101     41.660  30.189572     2.8341      7.143   285.2260 3.6268e+01     6.9650      1.847      2.679    11.2304   999.6093 0.0000e+00
      1.888      0.029     6.4022     83.086     41.649  30.181716     2.9266      7.143   285.2830 3.5954e+01     7.0454      1.852      2.685    11.2304   999.6093 0.0000e+00
      1.894      0.039     6.3892     83.098     41.623  30.162651     3.1077      7.143   285.2787 3.5526e+01     7.2819      1.856      2.692    11.2303   999.6094 0.0000e+00
      1.905      0.051     6.3811     83.132     41.607  30.149432     3.2206      7.142   285.2599 3.4746e+01     7.3984      1.864      2.705    11.2303   999.6094 0.0000e+00
      1.923      0.060     6.3759     83.176     41.609  30.148798     3.2345      7.139   285.3139 3.3701e+01     7.3408      1.884      2.732    11.2302   999.6095 0.0000e+00
      1.945      0.065     6.3760     83.222     41.619  30.154982     3.1114      7.138   285.4145 3.2624e+01     7.3060      1.907      2.767    11.2301   999.6096 0.0000e+00
      1.966      0.066     6.3764     83.282     41.628  30.160741     2.8767      7.137   285.5304 3.1659e+01     7.3387      1.929      2.799    11.2303   999.6097 0.0000e+00
      1.983      0.064     6.3796     83.304     41.621  30.154971     2.7547      7.135   285.5966 3.0935e+01     7.3754      1.947      2.824    11.2292   999.6099 0.0000e+00
      1.997      0.061     6.3843     83.222     41.613  30.148668     2.7540      7.135   285.5266 3.0349e+01     7.3888      1.959      2.841    11.2265   999.6102 0.0000e+00
      2.008      0.057     6.3865     83.083     41.614  30.147991     2.7563      7.135   285.4582 2.9684e+01     7.4031      1.968      2.855    11.2240   999.6105 0.0000e+00
      2.022      0.056     6.3931     82.989     41.614  30.146795     2.7649      7.135   285.5439 2.8986e+01     7.3516      1.982      2.875    11.2229   999.6107 0.0000e+00
      2.037      0.056     6.3979     82.936     41.600  30.134205     2.7974      7.135   285.6166 2.8322e+01     7.2250      1.998      2.897    11.2230   999.6108 0.0000e+00
      2.052      0.055     6.3904     82.891     41.588  30.122668     2.8195      7.135   285.5634 2.7631e+01     7.1833      2.012      2.919    11.2228   999.6109 0.0000e+00
      2.067      0.052     6.3742     82.858     41.606  30.134205     2.8153      7.135   285.5022 2.6987e+01     7.2069      2.027      2.940    11.2214   999.6111 0.0000e+00
      2.082      0.047     6.3699     82.829     41.625  30.146781     2.7984      7.135   285.4794 2.6467e+01     7.1829      2.042      2.961    11.2191   999.6115 0.0000e+00
      2.095      0.042     6.3668     82.802     41.625  30.147821     2.7721      7.135   285.4597 2.6105e+01     7.1555      2.057      2.983    11.2166   999.6117 0.0000e+00
      2.104      0.037     6.3633     82.780     41.623  30.146780     2.7571      7.135   285.4354 2.5871e+01     7.1702      2.065      2.996    11.2129   999.6121 0.0000e+00
      2.110      0.037     6.3617     82.725     41.606  30.134194     2.7554      7.135   285.3587 2.5693e+01     7.1970      2.069      3.001    11.2100   999.6125 0.0000e+00
      2.115      0.040     6.3597     82.609     41.594  30.122554     2.7517      7.135   285.3072 2.5544e+01     7.2496      2.073      3.007    11.2095   999.6125 0.0000e+00
      2.121      0.047     6.3570     82.477     41.615  30.132947     2.7466      7.133   285.4144 2.5233e+01     7.3159      2.078      3.014    11.2102   999.6125 0.0000e+00
      2.133      0.053     6.3561     82.376     41.620  30.132938     2.7460      7.129   285.6221 2.4536e+01     7.3429      2.089      3.030    11.2118   999.6124 0.0000e+00
      2.152      0.057     6.3541     82.313     41.609  30.122441     2.7529      7.127   285.7531 2.3601e+01     7.3465      2.110      3.060    11.2129   999.6123 0.0000e+00
      2.175      0.056     6.3428     82.276     41.625  30.132937     2.7433      7.125   285.7088 2.2760e+01     7.2607      2.134      3.095    11.2084   999.6129 0.0000e+00
      2.195      0.052     6.3327     82.253     41.624  30.132937     2.7088      7.124   285.5165 2.2258e+01     7.0599      2.157      3.127    11.2012   999.6138 0.0000e+00
      2.206      0.048     6.3254     82.241     41.608  30.122440     2.6822      7.125   285.3209 2.2129e+01     6.9170      2.168      3.143    11.1973   999.6142 0.0000e+00
      2.210      0.046     6.3217     82.226     41.622  30.132929     2.6827      7.126   285.3218 2.2072e+01     6.9099      2.167      3.142    11.1934   999.6146 0.0000e+00
      2.213      0.046     6.3196     82.194     41.625  30.132844     2.7399      7.127   285.3553 2.1786e+01     7.0065      2.169      3.145    11.1911   999.6149 0.0000e+00
      2.223      0.047     6.3172     82.143     41.615  30.121412     2.8272      7.127   285.2965 2.1239e+01     7.1016      2.178      3.158    11.1930   999.6147 0.0000e+00
      2.241      0.049     6.3167     82.076     41.620  30.121612     2.8632      7.127   285.2130 2.0501e+01     7.1096      2.196      3.183    11.1956   999.6145 0.0000e+00
      2.264      0.050     6.3158     82.001     41.643  30.135247     2.8713      7.127   285.0336 1.9841e+01     7.1370      2.223      3.223    11.1962   999.6146 0.0000e+00
      2.281      0.049     6.3138     81.936     41.680  30.159362     2.8812      7.127   284.8491 1.9556e+01     7.1699      2.242      3.251    11.1934   999.6149 0.0000e+00
      2.288      0.046     6.3106     81.891     41.682  30.159370     2.8707      7.127   284.7883 1.9486e+01     7.0491      2.245      3.256    11.1880   999.6156 0.0000e+00
      2.293      0.042     6.3060     81.856     41.650  30.135341     2.8577      7.127   284.8156 1.9345e+01     6.8230      2.247      3.258    11.1831   999.6161 0.0000e+00
      2.300      0.037     6.3001     81.841     41.633  30.122652     2.8617      7.127   284.8342 1.9049e+01     6.6971      2.252      3.267    11.1797   999.6165 0.0000e+00
      2.311      0.033     6.2948     81.833     41.648  30.132852     2.8667      7.128   284.8412 1.8624e+01     6.7069      2.265      3.285    11.1771   999.6169 0.0000e+00
      2.326      0.031     6.2930     81.815     41.647  30.131752     2.8237      7.129   284.9008 1.8246e+01     6.7444      2.282      3.310    11.1749   999.6171 0.0000e+00
      2.337      0.028     6.2889     81.792     41.615  30.109344     2.7409      7.129   284.9520 1.8066e+01     6.7250      2.294      3.327    11.1739   999.6173 0.0000e+00
      2.341      0.025     6.2888     81.761     41.624  30.115741     2.6970      7.129   284.8577 1.8067e+01     6.6688      2.298      3.333    11.1732   999.6173 0.0000e+00
      2.341      0.023     6.2892     81.710     41.667  30.145642     2.6920      7.129   284.7067 1.8099e+01     6.6549      2.295      3.330    11.1720   999.6174 0.0000e+00
      2.342      0.023     6.2870     81.642     41.688  30.153605     2.7060      7.129   284.5897 1.8005e+01     6.7859      2.294      3.327    11.1716   999.6175 0.0000e+00
      2.348      0.024     6.2855     81.570     41.703  30.148563     2.7360      7.129   284.4754 1.7766e+01     7.0077      2.301      3.337    11.1727   999.6174 0.0000e+00
      2.358      0.026     6.2834     81.494     41.729  30.148116     2.7519      7.128   284.4429 1.7452e+01     7.1084      2.312      3.353    11.1736   999.6174 0.0000e+00
      2.370      0.026     6.2795     81.416     41.748  30.148180     2.7600      7.127   284.4551 1.7210e+01     7.1181      2.325      3.371    11.1742   999.6174 0.0000e+00
      2.379      0.023     6.2740     81.344     41.753  30.149320     2.7903      7.127   284.4502 1.7121e+01     7.0926      2.335      3.386    11.1682   999.6180 0.0000e+00
      2.384      0.017     6.2727     81.294     41.759  30.161895     2.8412      7.127   284.4699 1.7102e+01     7.0288      2.338      3.392    11.1460   999.6204 0.0000e+00
      2.385      0.012     6.2704     81.283     41.761  30.173327     2.8730      7.127   284.4351 1.7089e+01     6.9693      2.338      3.392    11.1173   999.6234 0.0000e+00
      2.385      0.007     6.2671     81.290     41.732  30.160644     2.8790      7.127   284.2877 1.7079e+01     6.9311      2.338      3.391    11.0985   999.6253 0.0000e+00
      2.385      0.005     6.2615     81.285     41.687  30.135472     2.8798      7.127   284.1502 1.7066e+01     6.9930      2.338      3.392    11.0974   999.6254 0.0000e+00
      2.386      0.005     6.2546     81.294     41.662  30.122790     2.8827      7.127   284.1492 1.7059e+01     7.1278      2.340      3.394    11.1111   999.6240 0.0000e+00
      2.388      0.007     6.2521     81.344     41.676  30.134223     2.8877      7.127   284.1900 1.7063e+01     7.1844      2.341      3.396    11.1257   999.6226 0.0000e+00
      2.389      0.009     6.2534     81.400     41.695  30.146798     2.8883      7.127   284.1279 1.7059e+01     7.1533      2.342      3.397    11.1344   999.6216 0.0000e+00
      2.391      0.010     6.2502     81.428     41.698  30.147932     2.8811      7.127   284.0862 1.7021e+01     7.1121      2.345      3.401    11.1434   999.6207 0.0000e+00
      2.394      0.010     6.2483     81.420     41.699  30.147932     2.8873      7.127   284.1162 1.6930e+01     7.1454      2.347      3.406    11.1505   999.6200 0.0000e+00
      2.399      0.010     6.2543     81.401     41.702  30.146798     2.9203      7.127   284.1460 1.6828e+01     7.2933      2.352      3.412    11.1504   999.6199 0.0000e+00
      2.402      0.009     6.2596     81.386     41.693  30.134214     2.9408      7.127   284.1022 1.6790e+01     7.3930      2.356      3.417    11.1483   999.6202 0.0000e+00
      2.404      0.007     6.2623     81.361     41.682  30.122677     2.9371      7.126   283.9313 1.6796e+01     7.3672      2.357      3.419    11.1470   999.6204 0.0000e+00
      2.405      0.005     6.2606     81.314     41.696  30.134214     2.9098      7.126   283.8860 1.6799e+01     7.2435      2.358      3.421    11.1477   999.6202 0.0000e+00
      2.405      0.003     6.2588     81.229     41.707  30.146799     2.8542      7.128   284.0708 1.6796e+01     7.0450      2.358      3.421    11.1448   999.6205 0.0000e+00
      2.405      0.003     6.2603     81.111     41.703  30.147944     2.8191      7.128   284.1870 1.6796e+01     6.9327      2.358      3.420    11.1337   999.6218 0.0000e+00
      2.406      0.003     6.2592     81.007     41.700  30.148052     2.8235      7.127   284.0866 1.6805e+01     6.9350      2.359      3.422    11.1274   999.6224 0.0000e+00
      2.407      0.003     6.2555     80.940     41.696  30.148113     2.8380      7.126   283.9751 1.6806e+01     7.0074      2.360      3.423    11.1323   999.6219 0.0000e+00
      2.408      0.003     6.2482     80.895     41.695  30.148686     2.8555      7.126   283.9580 1.6800e+01     7.1194      2.361      3.425    11.1399   999.6211 0.0000e+00
      2.409      0.003     6.2365     80.868     41.704  30.154979     2.8702      7.126   283.9653 1.6807e+01     7.1759      2.362      3.426    11.1438   999.6207 0.0000e+00
      2.410      0.003     6.2274     80.883     41.715  30.160748     2.8774      7.127   284.0637 1.6817e+01     7.1653      2.363      3.427    11.1462   999.6205 0.0000e+00
      2.410      0.003     6.2229     80.963     41.714  30.154980     2.9070      7.127   284.1152 1.6796e+01     7.0902      2.363      3.428    11.1495   999.6201 0.0000e+00
      2.410      0.003     6.2190     81.087     41.713  30.148687     2.9599      7.126   284.0721 1.6737e+01     6.9886      2.364      3.428    11.1519   999.6199 0.0000e+00
      2.411      0.003     6.2165     81.211     41.716  30.148105     2.9967      7.125   284.1445 1.6686e+01     6.9531      2.365      3.430    11.1522   999.6199 0.0000e+00
      2.413      0.002     6.2164     81.333     41.715  30.147949     3.0132      7.125   284.1307 1.6667e+01     6.9559      2.366      3.432    11.1500   999.6202 0.0000e+00
      2.413      0.002     6.2245     81.450     41.712  30.146800     3.0132      7.126   284.0771 1.6663e+01     6.9891      2.366      3.432    11.1427   999.6209 0.0000e+00
      2.413      0.001     6.2375     81.523     41.696  30.134214     3.0048      7.126   284.1847 1.6661e+01     7.0924      2.366      3.432    11.1336   999.6218 0.0000e+00
      2.413      0.001     6.2468     81.546     41.681  30.122677     2.9986      7.126   284.2262 1.6654e+01     7.1560      2.367      3.434    11.1301   999.6222 0.0000e+00
      2.413      0.000     6.2552     81.550     41.694  30.134214     2.9906      7.126   284.1496 1.6651e+01     7.1683      2.366      3.433    11.1329   999.6219 0.0000e+00
      2.414 2.0490e-08     6.2661     81.545     41.705  30.146799     2.9936      7.126   284.1190 1.6666e+01     7.1758      2.367      3.432    11.1353   999.6216 0.0000e+00
      2.414 2.2539e-07     6.2723     81.536     41.700  30.147942     3.0619      7.125   284.1143 1.6680e+01     7.0831      2.367      3.433    11.1320   999.6220 0.0000e+00
      2.414 4.1322e-07     6.2728     81.532     41.697  30.148036     3.1228      7.124   284.0926 1.6666e+01     6.9968      2.367      3.433    11.1292   999.6223 0.0000e+00
      2.414 -9.990e-29     6.2728 -9.990e-29 -9.990e-29 -9.990e-29 -9.990e-29 -9.990e-29 -9.990e-29 1.6650e+01 -9.990e-29      2.367      3.434    11.1339   999.6218 0.0000e+00
      2.414 -9.990e-29     6.2712 -9.990e-29 -9.990e-29 -9.990e-29 -9.990e-29 -9.990e-29 -9.990e-29 1.6644e+01 -9.990e-29      2.368      3.434    11.1407   999.6211 0.0000e+00
      2.414 -9.990e-29     6.2690 -9.990e-29 -9.990e-29 -9.990e-29 -9.990e-29 -9.990e-29 -9.990e-29 1.6645e+01 -9.990e-29      2.367      3.433    11.1473   999.6204 0.0000e+00
      2.414 -9.990e-29     6.2683 -9.990e-29 -9.990e-29 -9.990e-29 -9.990e-29 -9.990e-29 -9.990e-29 1.6650e+01 -9.990e-29      2.368      3.434    11.1516   999.6199 0.0000e+00
