* Sea-Bird SBE19plus  Data File:
* FileName = C:\R\Reservoirs\Data\DataNotYetUploadedToEDI\Raw_CTD\RawDownloads\102725_fcr50_S7809_0006.hex
* Software version 2.8.0.119
* Temperature SN = 7809
* Conductivity SN = 7809
* System UpLoad Time = Nov 13 2025 15:24:27
* <ApplicationData>
* <Seaterm232>
* <SoftwareVersion>2.8.0.119</SoftwareVersion>
* <BuildDate>07-Nov-2018</BuildDate>
* </Seaterm232>
* </ApplicationData>
* <InstrumentState>
* <HardwareData DeviceType='SBE19plus' SerialNumber='01907809'>
*
*    <Manufacturer>Sea-Bird Electronics, Inc.</Manufacturer>
*
*    <FirmwareVersion>3.1.8</FirmwareVersion>
*
*    <FirmwareDate>Mar  9 2016 16:22:29</FirmwareDate>
*
*    <CommandSetVersion>1.4</CommandSetVersion>
*
*    <PCBAssembly PCBSerialNum='120721' AssemblyNum='41054J'/>
*
*    <PCBAssembly PCBSerialNum='120715' AssemblyNum='41967A'/>
*
*    <PCBAssembly PCBSerialNum='116699' AssemblyNum='41606'/>
*
*    <PCBAssembly PCBSerialNum='120719' AssemblyNum='41059D'/>
*
*    <MfgDate>28-Apr-2017</MfgDate>
*
*    <InternalSensors>
*
*       <Sensor id='Main Temperature'>
*
*          <type>temperature0</type>
*
*          <SerialNumber>01907809</SerialNumber>
*
*       </Sensor>
*
*       <Sensor id='Main Conductivity'>
*
*          <type>conductivity-0</type>
*
*          <SerialNumber>01907809</SerialNumber>
*
*       </Sensor>
*
*       <Sensor id='Main Pressure'>
*
*          <type>strain-0</type>
*
*          <SerialNumber>10586018</SerialNumber>
*
*       </Sensor>
*
*    </InternalSensors>
*
*    <ExternalSensors>
*
*       <Sensor id='volt 0'>
*
*          <type>pH</type>
*
*          <SerialNumber>27-0363</SerialNumber>
*
*       </Sensor>
*
*       <Sensor id='volt 1'>
*
*          <type>ORP</type>
*
*          <SerialNumber>27-0363</SerialNumber>
*
*       </Sensor>
*
*       <Sensor id='volt 2'>
*
*          <type>OXY</type>
*
*          <SerialNumber>43-0434</SerialNumber>
*
*       </Sensor>
*
*       <Sensor id='volt 3'>
*
*          <type>PAR</type>
*
*          <SerialNumber>1122</SerialNumber>
*
*       </Sensor>
*
*       <Sensor id='volt 4'>
*
*          <type>ECO AFL/FL</type>
*
*          <SerialNumber>FLNTURT-2496</SerialNumber>
*
*       </Sensor>
*
*       <Sensor id='volt 5'>
*
*          <type>ECO-NTU</type>
*
*          <SerialNumber>FLNTURT-2496</SerialNumber>
*
*       </Sensor>
*
*       <Sensor id='serial'>
*
*          <type>not assigned</type>
*
*          <SerialNumber>not assigned</SerialNumber>
*
*       </Sensor>
*
*    </ExternalSensors>
*
* </HardwareData>
* <StatusData DeviceType='SBE19plus' SerialNumber='01907809'>
*
*    <DateTime>2025-11-13T16:20:09</DateTime>
*
*    <LoggingState>not logging</LoggingState>
*
*    <EventSummary numEvents='0'/>
*
*    <Power>
*
*       <vMain>11.8</vMain>
*
*       <vLith>8.3</vLith>
*
*       <iMain>63.0</iMain>
*
*       <iPump>198.1</iPump>
*
*       <iExt01>22.0</iExt01>
*
*       <iExt2345>41.3</iExt2345>
*
*    </Power>
*
*    <MemorySummary>
*
*       <Bytes>229931</Bytes>
*
*       <Samples>9997</Samples>
*
*       <SamplesFree>2850791</SamplesFree>
*
*       <SampleLength>23</SampleLength>
*
*       <Profiles>7</Profiles>
*
*    </MemorySummary>
*
* </StatusData>
* <ConfigurationData DeviceType='SBE19plus' SerialNumber='01907809'>
*
*    <ProfileMode>
*
*       <ScansToAverage>1</ScansToAverage>
*
*       <MinimumCondFreq>0</MinimumCondFreq>
*
*       <PumpDelay>45</PumpDelay>
*
*       <AutoRun>no</AutoRun>
*
*       <IgnoreSwitch>no</IgnoreSwitch>
*
*    </ProfileMode>
*
*    <Battery>
*
*       <Type>alkaline</Type>
*
*       <CutOff>7.5</CutOff>
*
*    </Battery>
*
*    <DataChannels>
*
*       <ExtVolt0>yes</ExtVolt0>
*
*       <ExtVolt1>yes</ExtVolt1>
*
*       <ExtVolt2>yes</ExtVolt2>
*
*       <ExtVolt3>yes</ExtVolt3>
*
*       <ExtVolt4>yes</ExtVolt4>
*
*       <ExtVolt5>yes</ExtVolt5>
*
*       <SBE38>no</SBE38>
*
*       <WETLABS>no</WETLABS>
*
*       <OPTODE>no</OPTODE>
*
*       <SBE63>no</SBE63>
*
*       <SeaFET>no</SeaFET>
*
*       <GTD>no</GTD>
*
*    </DataChannels>
*
*    <EchoCharacters>yes</EchoCharacters>
*
*    <OutputExecutedTag>yes</OutputExecutedTag>
*
*    <OutputFormat>raw HEX</OutputFormat>
*
* </ConfigurationData>
* <CalibrationCoefficients DeviceType='SBE19plus' SerialNumber='01907809'>
*
*    <Calibration format='TEMP1' id='Main Temperature'>
*
*       <SerialNum>01907809</SerialNum>
*
*       <CalDate>31-Jan-23</CalDate>
*
*       <TA0>1.218232e-03</TA0>
*
*       <TA1>2.815090e-04</TA1>
*
*       <TA2>-1.578887e-06</TA2>
*
*       <TA3>1.972343e-07</TA3>
*
*       <TOFFSET>0.000000e+00</TOFFSET>
*
*    </Calibration>
*
*    <Calibration format='WBCOND0' id='Main Conductivity'>
*
*       <SerialNum>01907809</SerialNum>
*
*       <CalDate>31-Jan-23</CalDate>
*
*       <G>-1.005652e+00</G>
*
*       <H>1.267963e-01</H>
*
*       <I>-1.561708e-04</I>
*
*       <J>2.645944e-05</J>
*
*       <CPCOR>-9.570000e-08</CPCOR>
*
*       <CTCOR>3.250000e-06</CTCOR>
*
*       <CSLOPE>1.000000e+00</CSLOPE>
*
*    </Calibration>
*
*    <Calibration format='STRAIN0' id='Main Pressure'>
*
*       <SerialNum>10586018</SerialNum>
*
*       <CalDate>20-Jan-23</CalDate>
*
*       <PA0>4.416439e-02</PA0>
*
*       <PA1>4.850502e-04</PA1>
*
*       <PA2>-3.090426e-12</PA2>
*
*       <PTCA0>5.254757e+05</PTCA0>
*
*       <PTCA1>1.050255e+01</PTCA1>
*
*       <PTCA2>-2.922435e-01</PTCA2>
*
*       <PTCB0>2.516687e+01</PTCB0>
*
*       <PTCB1>3.750000e-04</PTCB1>
*
*       <PTCB2>0.000000e+00</PTCB2>
*
*       <PTEMPA0>-5.470820e+01</PTEMPA0>
*
*       <PTEMPA1>5.485421e+01</PTEMPA1>
*
*       <PTEMPA2>-3.446578e-01</PTEMPA2>
*
*       <POFFSET>8.500000e-01</POFFSET>
*
*       <PRANGE>1.600000e+02</PRANGE>
*
*    </Calibration>
*
*    <Calibration format='VOLT0' id='Volt 0'>
*
*       <OFFSET>-4.920000e-02</OFFSET>
*
*       <SLOPE>1.248122e+00</SLOPE>
*
*    </Calibration>
*
*    <Calibration format='VOLT0' id='Volt 1'>
*
*       <OFFSET>-4.784000e-02</OFFSET>
*
*       <SLOPE>1.248871e+00</SLOPE>
*
*    </Calibration>
*
*    <Calibration format='VOLT0' id='Volt 2'>
*
*       <OFFSET>-4.864632e-02</OFFSET>
*
*       <SLOPE>1.248714e+00</SLOPE>
*
*    </Calibration>
*
*    <Calibration format='VOLT0' id='Volt 3'>
*
*       <OFFSET>-4.743790e-02</OFFSET>
*
*       <SLOPE>1.248571e+00</SLOPE>
*
*    </Calibration>
*
*    <Calibration format='VOLT0' id='Volt 4'>
*
*       <OFFSET>-4.671263e-02</OFFSET>
*
*       <SLOPE>1.248951e+00</SLOPE>
*
*    </Calibration>
*
*    <Calibration format='VOLT0' id='Volt 5'>
*
*       <OFFSET>-4.871053e-02</OFFSET>
*
*       <SLOPE>1.249136e+00</SLOPE>
*
*    </Calibration>
*
*    <Calibration format='FREQ0' id='external frequency channel'>
*
*       <EXTFREQSF>1.000014e+00</EXTFREQSF>
*
*    </Calibration>
*
* </CalibrationCoefficients>
* <EventCounters DeviceType='SBE19plus' SerialNumber='01907809'>
*
*    <EventSummary numEvents='0'/>
*
* </EventCounters></InstrumentState>
* <Headers>
*
* cast   6 10 Nov 2025 15:24:37 samples 7948 to 8905, avg = 1, stop = mag switch
*
# nquan = 15
# nvalues = 865                         
# units = specified
# name 0 = depFM: Depth [fresh water, m]
# name 1 = dz/dtM: Descent Rate [m/s]
# name 2 = sbeox0Mg/L: Oxygen, SBE 43 [mg/l]
# name 3 = sbeox0PS: Oxygen, SBE 43 [% saturation]
# name 4 = specc: Specific Conductance [uS/cm]
# name 5 = c0uS/cm: Conductivity [uS/cm]
# name 6 = flECO-AFL: Fluorescence, WET Labs ECO-AFL/FL [mg/m^3]
# name 7 = ph: pH
# name 8 = orp: Oxidation Reduction Potential [mV]
# name 9 = par/sat/log: PAR/Logarithmic, Satlantic
# name 10 = turbWETntu0: Turbidity, WET Labs ECO [NTU]
# name 11 = prdM: Pressure, Strain Gauge [db]
# name 12 = prdE: Pressure, Strain Gauge [psi]
# name 13 = tv290C: Temperature [ITS-90, deg C]
# name 14 = flag:  0.000e+00
# span 0 =     -0.725,      5.153       
# span 1 =     -0.188,      0.254       
# span 2 =     5.7059,    11.8140       
# span 3 =     51.898,     99.465       
# span 4 =      2.489,     49.855       
# span 5 =   1.505033,  33.817024       
# span 6 =    -0.1272,     1.3190       
# span 7 =     -1.964,      9.064       
# span 8 =   -55.7686,   915.7720       
# span 9 = 1.3069e-01, 3.1699e+02       
# span 10 =     0.9259,   196.7630      
# span 11 =     -0.712,      5.054      
# span 12 =     -1.032,      7.331      
# span 13 =     5.0366,    11.5366      
# span 14 = 0.0000e+00, 0.0000e+00      
# interval = seconds: 0.25
# start_time = Nov 10 2025 15:24:37 [Instrument's time stamp, header]
# bad_flag = -9.990e-29
# <Sensors count="9" >
#   <sensor Channel="1" >
#     <!-- Count, Temperature -->
#     <TemperatureSensor SensorID="58" >
#       <SerialNumber>7809</SerialNumber>
#       <CalibrationDate>31-Jan-23</CalibrationDate>
#       <A0>1.21823180e-003</A0>
#       <A1>2.81508993e-004</A1>
#       <A2>-1.57888696e-006</A2>
#       <A3>1.97234302e-007</A3>
#       <Slope>1.00000000</Slope>
#       <Offset>0.0000</Offset>
#     </TemperatureSensor>
#   </sensor>
#   <sensor Channel="2" >
#     <!-- Frequency 0, Conductivity -->
#     <ConductivitySensor SensorID="3" >
#       <SerialNumber>7809</SerialNumber>
#       <CalibrationDate>31-Jan-23</CalibrationDate>
#       <UseG_J>1</UseG_J>
#       <!-- Cell const and series R are applicable only for wide range sensors. -->
#       <SeriesR>0.0000</SeriesR>
#       <CellConst>2000.0000</CellConst>
#       <ConductivityType>0</ConductivityType>
#       <Coefficients equation="0" >
#         <A>0.00000000e+000</A>
#         <B>0.00000000e+000</B>
#         <C>0.00000000e+000</C>
#         <D>0.00000000e+000</D>
#         <M>0.0</M>
#         <CPcor>-9.57000000e-008</CPcor>
#       </Coefficients>
#       <Coefficients equation="1" >
#         <G>-1.00565232e+000</G>
#         <H>1.26796307e-001</H>
#         <I>-1.56170788e-004</I>
#         <J>2.64594368e-005</J>
#         <CPcor>-9.57000000e-008</CPcor>
#         <CTcor>3.2500e-006</CTcor>
#         <!-- WBOTC not applicable unless ConductivityType = 1. -->
#         <WBOTC>0.00000000e+000</WBOTC>
#       </Coefficients>
#       <Slope>1.00000000</Slope>
#       <Offset>0.00000</Offset>
#     </ConductivitySensor>
#   </sensor>
#   <sensor Channel="3" >
#     <!-- Count, Pressure, Strain Gauge -->
#     <PressureSensor SensorID="46" >
#       <SerialNumber>7809</SerialNumber>
#       <CalibrationDate>20-Jan-23</CalibrationDate>
#       <PA0>4.41643944e-002</PA0>
#       <PA1>4.85050239e-004</PA1>
#       <PA2>-3.09042623e-012</PA2>
#       <PTEMPA0>-5.47081996e+001</PTEMPA0>
#       <PTEMPA1>5.48542136e+001</PTEMPA1>
#       <PTEMPA2>-3.44657813e-001</PTEMPA2>
#       <PTCA0>5.25475731e+005</PTCA0>
#       <PTCA1>1.05025484e+001</PTCA1>
#       <PTCA2>-2.92243463e-001</PTCA2>
#       <PTCB0>2.51668750e+001</PTCB0>
#       <PTCB1>3.75000000e-004</PTCB1>
#       <PTCB2>0.00000000e+000</PTCB2>
#       <Offset>0.000000</Offset>
#     </PressureSensor>
#   </sensor>
#   <sensor Channel="4" >
#     <!-- A/D voltage 0, Oxygen, SBE 43 -->
#     <OxygenSensor SensorID="38" >
#       <SerialNumber>0434</SerialNumber>
#       <CalibrationDate>18-Feb-23</CalibrationDate>
#       <Use2007Equation>1</Use2007Equation>
#       <CalibrationCoefficients equation="0" >
#         <!-- Coefficients for Owens-Millard equation. -->
#         <Boc>0.0000</Boc>
#         <Soc>0.0000e+000</Soc>
#         <offset>0.0000</offset>
#         <Pcor>0.00e+000</Pcor>
#         <Tcor>0.0000</Tcor>
#         <Tau>0.0</Tau>
#       </CalibrationCoefficients>
#       <CalibrationCoefficients equation="1" >
#         <!-- Coefficients for Sea-Bird equation - SBE calibration in 2007 and later. -->
#         <Soc>5.1878e-001</Soc>
#         <offset>-0.5046</offset>
#         <A>-4.2788e-003</A>
#         <B> 1.5372e-004</B>
#         <C>-2.1853e-006</C>
#         <D0> 2.5826e+000</D0>
#         <D1> 1.92634e-004</D1>
#         <D2>-4.64803e-002</D2>
#         <E> 3.6000e-002</E>
#         <Tau20> 0.9900</Tau20>
#         <H1>-3.3000e-002</H1>
#         <H2> 5.0000e+003</H2>
#         <H3> 1.4500e+003</H3>
#       </CalibrationCoefficients>
#     </OxygenSensor>
#   </sensor>
#   <sensor Channel="5" >
#     <!-- A/D voltage 1, PAR/Logarithmic, Satlantic -->
#     <PARLog_SatlanticSensor SensorID="76" >
#       <SerialNumber>1122</SerialNumber>
#       <CalibrationDate>08-Sep-2021</CalibrationDate>
#       <a0>9.6751e-001</a0>
#       <a1>8.0992e-001</a1>
#       <Im>1.3589e+000</Im>
#       <Multiplier>1.0000e+000</Multiplier>
#     </PARLog_SatlanticSensor>
#   </sensor>
#   <sensor Channel="6" >
#     <!-- A/D voltage 2, pH -->
#     <pH_Sensor SensorID="43" >
#       <SerialNumber>0363</SerialNumber>
#       <CalibrationDate>28-Feb-23</CalibrationDate>
#       <Slope>4.7364</Slope>
#       <Offset>2.5433</Offset>
#     </pH_Sensor>
#   </sensor>
#   <sensor Channel="7" >
#     <!-- A/D voltage 3, Oxidation Reduction Potential -->
#     <OxidationReductionPotentialSensor SensorID="41" >
#       <SerialNumber>0363</SerialNumber>
#       <CalibrationDate>28-Feb-23</CalibrationDate>
#       <B>2.499480</B>
#       <M>-0.496195</M>
#       <Offset>0.0</Offset>
#     </OxidationReductionPotentialSensor>
#   </sensor>
#   <sensor Channel="8" >
#     <!-- A/D voltage 4, Fluorometer, WET Labs ECO-AFL/FL -->
#     <FluoroWetlabECO_AFL_FL_Sensor SensorID="20" >
#       <SerialNumber>FLNTURT-2496</SerialNumber>
#       <CalibrationDate>02-Sep-2021</CalibrationDate>
#       <ScaleFactor>4.80000000e+001</ScaleFactor>
#       <!-- Dark output -->
#       <Vblank>0.0550</Vblank>
#     </FluoroWetlabECO_AFL_FL_Sensor>
#   </sensor>
#   <sensor Channel="9" >
#     <!-- A/D voltage 5, Turbidity Meter, WET Labs, ECO-NTU -->
#     <TurbidityMeter SensorID="67" >
#       <SerialNumber>FLNTURT--2496</SerialNumber>
#       <CalibrationDate>02-Sep-2021</CalibrationDate>
#       <ScaleFactor>197.000000</ScaleFactor>
#       <!-- Dark output -->
#       <DarkVoltage>0.070000</DarkVoltage>
#     </TurbidityMeter>
#   </sensor>
# </Sensors>
# datcnv_date = Dec 17 2025 16:26:28, 7.26.7.129 [datcnv_vars = 14]
# datcnv_in = C:\R\Reservoirs\Data\DataNotYetUploadedToEDI\Raw_CTD\RawDownloads\111025_fcr30_S7809006.hex C:\R\Reservoirs\Data\DataNotYetUploadedToEDI\Raw_CTD\RawDownloads\SBE19plusV2_7809_start20230701.xmlcon
# datcnv_skipover = 0
# datcnv_ox_hysteresis_correction = yes
# datcnv_ox_tau_correction = yes
# filter_date = Dec 17 2025 16:27:09, 7.26.7.129
# filter_in = C:\R\Reservoirs\Data\DataNotYetUploadedToEDI\Raw_CTD\RawDownloads\111025_fcr30_S7809006.cnv
# filter_low_pass_tc_A = 0.030
# filter_low_pass_tc_B = 0.150
# filter_low_pass_A_vars = sbeox0Mg/L prdM prdE tv290C
# filter_low_pass_B_vars = depFM dz/dtM sbeox0PS specc c0uS/cm flECO-AFL ph orp par/sat/log turbWETntu0
# alignctd_date = Dec 17 2025 16:27:40, 7.26.7.129
# alignctd_in = C:\R\Reservoirs\Data\DataNotYetUploadedToEDI\Raw_CTD\RawDownloads\111025_fcr30_S7809006.cnv
# alignctd_adv = dz/dtM 1.000, sbeox0PS 1.000, specc 1.000, c0uS/cm 1.000, flECO-AFL 1.000, ph 1.000, orp 1.000, turbWETntu0 1.000                                                                                                   
# file_type = ascii
*END*
     -0.725 9.9220e-19    11.7860     92.664      3.817   2.296486    -0.0769      2.103   779.3404 2.4788e+02     5.5471     -0.711     -1.031     5.0366 0.0000e+00
     -0.725 9.0200e-20    11.8135     92.618      3.845   2.314070    -0.0822      2.313   805.1446 2.4753e+02     5.5011     -0.711     -1.031     5.0473 0.0000e+00
     -0.724 8.2000e-21    11.8140     92.590      3.885   2.339435    -0.0566      2.435   831.4571 2.4688e+02     5.2838     -0.710     -1.030     5.0605 0.0000e+00
     -0.724 7.4545e-22    11.8127     92.560      3.901   2.349775    -0.0418      2.519   834.8904 2.4778e+02     4.7978     -0.710     -1.030     5.0728 0.0000e+00
     -0.725 6.7770e-23    11.8120     92.487      3.944   2.375739    -0.0608      2.689   819.2954 2.4865e+02     4.4755     -0.711     -1.031     5.0854 0.0000e+00
     -0.725 6.1605e-24    11.7941     92.414      3.984   2.399979    -0.0868      2.931   807.8372 2.4922e+02     4.3599     -0.711     -1.031     5.0967 0.0000e+00
     -0.725 5.6005e-25    11.7921     92.389      3.966   2.389461    -0.0809      3.168   806.3947 2.5368e+02     4.3217     -0.710     -1.030     5.1070 0.0000e+00
     -0.725 5.0915e-26    11.7883     92.390      3.941   2.375262    -0.0650      3.403   801.1648 2.6155e+02     4.4235     -0.711     -1.031     5.1145 0.0000e+00
     -0.725 4.6286e-27    11.7751     92.394      3.907   2.354996    -0.0772      3.658   794.1620 2.6705e+02     4.5320     -0.711     -1.031     5.1195 0.0000e+00
     -0.725 4.2078e-28    11.7596     92.387      3.872   2.334475    -0.0787      3.926   792.7069 2.6749e+02     4.6085     -0.710     -1.030     5.1237 0.0000e+00
     -0.725 3.8253e-29    11.7592     92.372      3.843   2.317180    -0.0597      4.171   792.7775 2.6656e+02     4.6645     -0.711     -1.031     5.1285 0.0000e+00
     -0.725 3.4775e-30    11.7579     92.394      3.768   2.272587    -0.0627      4.349   799.5752 2.6849e+02     4.6290     -0.711     -1.031     5.1338 0.0000e+00
     -0.725 3.1614e-31    11.7559     92.419      3.712   2.238735    -0.0827      4.427   827.4041 2.7019e+02     4.6232     -0.711     -1.031     5.1391 0.0000e+00
     -0.725 2.8740e-32    11.7574     92.434      3.688   2.224620    -0.0766      4.395   868.8994 2.6479e+02     4.7313     -0.710     -1.030     5.1443 0.0000e+00
     -0.725 2.6156e-33    11.7458     92.466      3.694   2.228610    -0.0551      4.297   895.7883 2.5511e+02     4.7073     -0.711     -1.031     5.1490 0.0000e+00
     -0.725 2.6878e-34    11.7535     92.487      3.790   2.286983    -0.0638      4.272   897.1509 2.5174e+02     4.2986     -0.711     -1.031     5.1536 0.0000e+00
     -0.725 3.6542e-34    11.7557     92.507      3.911   2.360274    -0.0826      4.412   888.1281 2.5649e+02     3.7179     -0.711     -1.031     5.1583 0.0000e+00
     -0.725 3.7841e-33    11.7514     92.527      4.006   2.417949    -0.0738      4.647   883.8318 2.6469e+02     3.4582     -0.711     -1.031     5.1630 0.0000e+00
     -0.725 4.1603e-32    11.7597     92.503      4.105   2.477547    -0.0575      4.833   890.5477 2.7178e+02     3.4824     -0.711     -1.031     5.1678 0.0000e+00
     -0.725 4.5763e-31    11.7576     92.445      4.160   2.510731    -0.0687      4.859   901.8756 2.7436e+02     3.4635     -0.711     -1.031     5.1724 0.0000e+00
     -0.725 5.0340e-30    11.7592     92.416      4.145   2.502428    -0.1008      4.878   903.8683 2.7537e+02     3.4345     -0.711     -1.031     5.1757 0.0000e+00
     -0.725 5.5374e-29    11.7643     92.412      4.147   2.503860    -0.1047      5.115   890.9813 2.7419e+02     3.5078     -0.711     -1.031     5.1778 0.0000e+00
     -0.725 6.0911e-28    11.7614     92.407      4.187   2.528049    -0.0729      5.517   858.9430 2.6880e+02     3.5295     -0.710     -1.030     5.1796 0.0000e+00
     -0.725 6.7002e-27    11.7470     92.409      4.209   2.541496    -0.0664      5.970   825.7210 2.6960e+02     3.4234     -0.711     -1.031     5.1814 0.0000e+00
     -0.725 7.3703e-26    11.7451     92.424      4.206   2.539753    -0.0760      6.397   815.2136 2.7750e+02     3.4540     -0.711     -1.031     5.1834 0.0000e+00
     -0.725 8.1073e-25    11.7454     92.452      4.151   2.506968    -0.0569      6.752   815.6161 2.7727e+02     3.6274     -0.711     -1.032     5.1859 0.0000e+00
     -0.725 8.9180e-24    11.7426     92.484      3.971   2.398502    -0.0597      7.051   812.0886 2.6455e+02     3.6409     -0.711     -1.031     5.1887 0.0000e+00
     -0.725 9.8098e-23    11.7425     92.515      3.816   2.305207    -0.0930      7.332   788.9096 2.4826e+02     3.5494     -0.711     -1.032     5.1917 0.0000e+00
     -0.725 1.0791e-21    11.7419     92.503      3.855   2.329160    -0.0939      7.601   778.8523 2.3558e+02     3.6484     -0.711     -1.031     5.1947 0.0000e+00
     -0.725 1.1870e-20    11.7477     92.452      3.924   2.371376    -0.0781      7.470   829.0097 2.2779e+02     3.8465     -0.710     -1.030     5.1978 0.0000e+00
     -0.725 1.3057e-19    11.7472     92.417      3.925   2.372213    -0.0687      6.407   886.6077 2.2633e+02     3.8619     -0.711     -1.031     5.2012 0.0000e+00
     -0.725 1.4363e-18    11.7556     92.421      3.870   2.339273    -0.0632      4.653   906.2017 2.3113e+02     3.8004     -0.711     -1.031     5.2048 0.0000e+00
     -0.725 1.5799e-17    11.7518     92.443      3.788   2.289844    -0.0698      2.956   908.8971 2.3974e+02     3.6149     -0.711     -1.031     5.2086 0.0000e+00
     -0.725 1.7379e-16    11.7404     92.503      3.774   2.281344    -0.0652      1.581   909.1311 2.4620e+02     3.2246     -0.711     -1.031     5.2122 0.0000e+00
     -0.725 1.9117e-15    11.7338     92.625      3.804   2.299849    -0.0664      0.412   908.7730 2.4684e+02     3.0092     -0.711     -1.031     5.2157 0.0000e+00
     -0.725 2.1028e-14    11.7357     92.741      3.634   2.196860    -0.0846     -0.650   908.5252 2.4561e+02     3.8461     -0.711     -1.031     5.2190 0.0000e+00
     -0.725 2.3131e-13    11.7379     92.816      3.181   1.922955    -0.0274     -1.571   908.3717 2.4237e+02    14.6074     -0.711     -1.031     5.2216 0.0000e+00
     -0.725 2.5444e-12    11.7389     92.846      2.832   1.711985     0.0934     -1.833   908.9828 2.3996e+02    34.4025     -0.711     -1.032     5.2236 0.0000e+00
     -0.725 2.7989e-11    11.7626     92.831      2.558   1.546444     0.1443     -0.956   910.4077 2.4373e+02    45.1307     -0.711     -1.031     5.2250 0.0000e+00
     -0.725 3.0787e-10    11.7759     92.767      2.489   1.505033     0.1385      0.666   912.4351 2.4967e+02    46.0446     -0.710     -1.030     5.2264 0.0000e+00
     -0.725 3.3866e-09    11.7852     92.646      3.051   1.844704     0.1319      2.472   915.7720 2.5340e+02    45.1789     -0.711     -1.031     5.2279 0.0000e+00
     -0.725 3.7253e-08    11.7896     92.505      3.587   2.169376     0.0720      4.236   912.8104 2.5373e+02    34.1509     -0.711     -1.031     5.2293 0.0000e+00
     -0.725 4.0978e-07    11.7849     92.377      4.370   2.643409    -0.0290      5.655   901.3197 2.4928e+02    14.0233     -0.711     -1.031     5.2309 0.0000e+00
     -0.725      0.000    11.7804     92.302      5.613   3.395084    -0.0642      6.561   851.6940 2.3783e+02     3.1196     -0.711     -1.031     5.2328 0.0000e+00
     -0.725      0.000    11.7596     92.303      5.520   3.339089    -0.0377      7.097   740.3193 2.1458e+02     2.1970     -0.712     -1.032     5.2348 0.0000e+00
     -0.725      0.001    11.7407     92.325      4.298   2.599949    -0.0248      7.374   701.6864 1.8494e+02     1.8775     -0.711     -1.031     5.2371 0.0000e+00
     -0.724      0.001    11.7226     92.337      3.824   2.313568    -0.0415      7.140   800.9311 1.6220e+02     1.2724     -0.710     -1.030     5.2396 0.0000e+00
     -0.724      0.001    11.7080     92.370      4.088   2.473827    -0.0733      5.886   887.5021 1.5108e+02     0.9259     -0.710     -1.030     5.2425 0.0000e+00
     -0.724      0.001    11.7131     92.427      4.253   2.573850    -0.0843      3.613   905.9990 1.4702e+02     0.9677     -0.710     -1.030     5.2456 0.0000e+00
     -0.724      0.000    11.7165     92.479      4.251   2.572721    -0.0828      1.195   907.6479 1.4116e+02     1.1286     -0.710     -1.030     5.2486 0.0000e+00
     -0.724 1.8626e-08    11.7137     92.508      4.274   2.586877    -0.0968     -0.507   907.6106 1.3274e+02     1.3338     -0.710     -1.029     5.2518 0.0000e+00
     -0.724 2.0489e-07    11.7173     92.514      4.325   2.618316    -0.0868     -1.418   907.5276 1.2735e+02     1.5022     -0.710     -1.029     5.2548 0.0000e+00
     -0.724 2.0489e-07    11.7255     92.509      4.459   2.699450    -0.0541     -1.844   907.5045 1.2823e+02     1.6280     -0.710     -1.030     5.2578 0.0000e+00
     -0.724 1.8626e-08    11.7319     92.509      4.742   2.871026    -0.0508     -1.964   907.5896 1.3318e+02     1.5907     -0.710     -1.030     5.2609 0.0000e+00
     -0.724 1.6933e-09    11.7344     92.508      5.030   3.045756    -0.0640     -1.869   907.6958 1.3643e+02     1.4272     -0.710     -1.030     5.2637 0.0000e+00
     -0.724 1.5394e-10    11.7340     92.486      5.122   3.101647    -0.0546     -1.649   907.7564 1.3948e+02     1.3934     -0.710     -1.030     5.2666 0.0000e+00
     -0.724 1.4019e-11    11.7315     92.455      5.019   3.040013    -0.0537     -1.390   907.8058 1.4645e+02     1.3862     -0.710     -1.030     5.2694 0.0000e+00
     -0.724 1.5421e-12    11.7307     92.426      4.844   2.934044    -0.0875     -1.144   907.8626 1.5538e+02     1.3741     -0.710     -1.030     5.2722 0.0000e+00
     -0.724 3.0843e-12    11.7318     92.408      4.679   2.833976    -0.1218     -0.904   907.8407 1.6008e+02     1.4526     -0.710     -1.030     5.2751 0.0000e+00
     -0.724 3.2665e-11    11.7268     92.403      4.485   2.716984    -0.1272     -0.638   907.7992 1.5770e+02     1.5498     -0.710     -1.030     5.2775 0.0000e+00
     -0.724 3.5920e-10    11.7212     92.380      4.285   2.596437    -0.1023     -0.307   907.8773 1.5046e+02     1.6611     -0.710     -1.030     5.2804 0.0000e+00
     -0.724 3.9512e-09    11.7175     92.348      4.153   2.516737    -0.0962      0.085   908.0103 1.3861e+02     1.6709     -0.710     -1.029     5.2827 0.0000e+00
     -0.724 4.3463e-08    11.7122     92.352      4.043   2.450159    -0.1032      0.494   908.0306 1.2658e+02     1.4979     -0.710     -1.029     5.2859 0.0000e+00
     -0.724 4.7810e-07    11.7150     92.396      4.002   2.424930    -0.0786      0.917   907.7795 1.2008e+02     1.2773     -0.710     -1.029     5.2878 0.0000e+00
     -0.724      0.000    11.7090     92.431      4.067   2.465082    -0.0654      1.332   904.9745 1.1668e+02     1.1213     -0.710     -1.030     5.2920 0.0000e+00
     -0.724      0.000    11.7029     92.444      4.215   2.555551    -0.0853      1.732   874.0290 1.1538e+02     1.0463     -0.710     -1.029     5.2923 0.0000e+00
     -0.724      0.001    11.6999     92.460      5.162   3.138698    -0.1026      2.672   534.0502 1.1638e+02     1.2248     -0.710     -1.030     5.2987 0.0000e+00
     -0.724      0.007    11.7112     92.440     14.267   8.755679    -0.1071      4.507    31.5473 1.1897e+02     1.6395     -0.709     -1.029     5.2949 0.0000e+00
     -0.724      0.027    11.7125     92.315     33.392  20.905560    -0.1153      6.305   -55.7686 1.2889e+02     1.8243     -0.711     -1.030     5.3075 0.0000e+00
     -0.724      0.062    11.7151     92.227     47.367  30.549619    -0.1181      7.351    58.2249 1.5481e+02     1.8203     -0.709     -1.028     5.2932 0.0000e+00
     -0.720      0.107    11.7102     92.354     49.855  33.297510     0.1004      7.884    73.9883 1.9633e+02     2.6156     -0.711     -1.031     5.3228 0.0000e+00
     -0.698      0.154    11.7262     92.444     48.643  33.453109     0.5451      8.173    81.9111 2.4004e+02     4.1639     -0.702     -1.017     5.2806 0.0000e+00
     -0.641      0.197    11.5938     92.322     47.653  33.447071     0.8144      8.337    86.9943 2.7514e+02     4.9984     -0.638     -0.924     5.6592 0.0000e+00
     -0.563      0.230    11.1452     92.152     46.978  33.415522     0.8513      8.434    89.5038 2.9879e+02     5.0202     -0.550     -0.797     7.1048 0.0000e+00
     -0.484      0.250    10.7946     92.033     46.474  33.325880     0.8655      8.492    89.7967 3.0970e+02     5.0764     -0.470     -0.683     8.5500 0.0000e+00
     -0.414      0.254    10.5770     91.977     46.077  33.188273     0.8950      8.531    89.4177 3.0550e+02     5.2670     -0.402     -0.584     9.4867 0.0000e+00
     -0.353      0.243    10.3712     91.952     45.756  33.020750     0.9089      8.560    83.6297 2.8640e+02     5.3784     -0.344     -0.499    10.1855 0.0000e+00
     -0.298      0.225    10.2484     91.964     45.566  32.886523     0.9168      8.584    77.5474 2.4316e+02     5.3638     -0.292     -0.423    10.6270 0.0000e+00
     -0.245      0.203    10.1675     92.110     45.581  32.834197     0.9162      8.604    76.1914 1.9497e+02     5.2958     -0.243     -0.352    10.8965 0.0000e+00
     -0.191      0.179    10.1308     92.471     45.687  32.768668     0.8927      8.622    75.4939 1.7752e+02     5.2393     -0.187     -0.271    11.0425 0.0000e+00
     -0.140      0.151    10.1143     92.997     45.786  32.665052     0.8657      8.637    74.8787 1.6819e+02     5.2278     -0.133     -0.192    11.1024 0.0000e+00
     -0.100      0.120    10.1106     93.574     45.895  32.596262     0.8566      8.651    74.3453 1.5357e+02     5.1904     -0.092     -0.134    11.1041 0.0000e+00
     -0.075      0.087    10.1321     94.089     45.908  32.507755     0.8746      8.663    74.1208 1.4445e+02     5.0947     -0.070     -0.101    11.0567 0.0000e+00
     -0.064      0.057    10.2195     94.499     45.771  32.356129     0.8998      8.672    74.0568 1.3854e+02     5.0617     -0.059     -0.086    10.8719 0.0000e+00
     -0.061      0.033    10.3352     94.850     45.621  32.222049     0.9280      8.679    73.8299 1.3478e+02     5.2008     -0.057     -0.085    10.6514 0.0000e+00
     -0.060      0.017    10.4425     95.137     45.550  32.155401     0.9580      8.687    73.5287 1.3439e+02     5.3753     -0.059     -0.086    10.4913 0.0000e+00
     -0.059      0.008    10.5306     95.319     45.514  32.121252     0.9623      8.694    73.2546 1.3676e+02     5.3614     -0.058     -0.084    10.3838 0.0000e+00
     -0.058      0.003    10.5828     95.398     45.433  32.062909     0.9468      8.701    72.9240 1.3704e+02     5.1698     -0.056     -0.082    10.3325 0.0000e+00
     -0.055     -0.003    10.6300     95.403     45.284  31.957493     0.9368      8.708    72.5430 1.3459e+02     5.0063     -0.054     -0.078    10.3104 0.0000e+00
     -0.054     -0.012    10.6690     95.381     45.245  31.925161     0.9413      8.714    72.1759 1.3152e+02     5.0243     -0.052     -0.075    10.2916 0.0000e+00
     -0.055     -0.022    10.6912     95.353     45.522  32.116055     0.9600      8.719    71.8416 1.3293e+02     5.1477     -0.052     -0.076    10.2806 0.0000e+00
     -0.060     -0.027    10.6993     95.310     45.845  32.362360     0.9376      8.724    71.5121 1.4133e+02     5.1999     -0.055     -0.081    10.2825 0.0000e+00
     -0.073     -0.027    10.6957     95.216     45.862  32.429046     0.8709      8.728    71.2886 1.5235e+02     5.2116     -0.068     -0.097    10.2857 0.0000e+00
     -0.093     -0.020    10.6946     95.079     45.644  32.351445     0.8355      8.732    71.1188 1.6041e+02     5.2555     -0.095     -0.137    10.2812 0.0000e+00
     -0.105     -0.009    10.6954     94.945     45.299  32.185469     0.8352      8.737    70.8357 1.6361e+02     5.2869     -0.112     -0.163    10.2622 0.0000e+00
     -0.101      0.002    10.6902     94.830     44.956  32.008342     0.8416      8.741    70.5329 1.5944e+02     5.2829     -0.101     -0.147    10.2758 0.0000e+00
     -0.088      0.012    10.6624     94.730     44.909  31.986222     0.8371      8.746    70.3830 1.5071e+02     5.2419     -0.085     -0.124    10.3441 0.0000e+00
     -0.076      0.019    10.6198     94.664     45.153  32.108354     0.8315      8.751    70.3134 1.4252e+02     5.2685     -0.076     -0.109    10.4393 0.0000e+00
     -0.068      0.019    10.5847     94.646     45.363  32.216160     0.8485      8.756    70.2075 1.3794e+02     5.4000     -0.062     -0.091    10.5222 0.0000e+00
     -0.068      0.012    10.5486     94.666     45.429  32.274610     0.8841      8.760    70.1358 1.4103e+02     5.4310     -0.063     -0.093    10.6192 0.0000e+00
     -0.071      0.003    10.5280     94.681     45.494  32.370987     0.9125      8.764    70.4778 1.4327e+02     5.2677     -0.075     -0.108    10.6518 0.0000e+00
     -0.070     -0.003    10.5483     94.681     45.563  32.493332     0.9093      8.770    71.8478 1.4131e+02     5.0662     -0.069     -0.100    10.5384 0.0000e+00
     -0.067     -0.005    10.5604     94.726     45.535  32.548559     0.9028      8.775    77.8383 1.4251e+02     5.0441     -0.061     -0.089    10.4797 0.0000e+00
     -0.072     -0.003    10.5579     94.847     45.437  32.531291     0.9180      8.780    87.1556 1.4301e+02     5.1708     -0.070     -0.102    10.5095 0.0000e+00
     -0.078     -0.001    10.5484     95.032     45.226  32.411486     0.9263      8.787    91.3218 1.4142e+02     5.2319     -0.080     -0.115    10.5622 0.0000e+00
     -0.078     -0.001    10.5206     95.266     44.864  32.178538     0.9201      8.793    90.3533 1.4417e+02     5.2360     -0.077     -0.112    10.6540 0.0000e+00
     -0.075     -0.006    10.5021     95.534     44.607  31.998624     0.9263      8.797    85.6843 1.4746e+02     5.2551     -0.072     -0.106    10.7484 0.0000e+00
     -0.071     -0.016    10.5021     95.799     44.791  32.075943     0.9434      8.801    78.0613 1.4740e+02     5.3266     -0.072     -0.103    10.8085 0.0000e+00
     -0.068     -0.027    10.5182     96.167     45.370  32.415488     0.9353      8.803    73.7274 1.5101e+02     5.3826     -0.064     -0.092    10.8258 0.0000e+00
     -0.073     -0.035    10.5363     97.066     45.852  32.741581     0.8872      8.804    73.1189 1.5742e+02     5.3166     -0.064     -0.092    10.8623 0.0000e+00
     -0.095     -0.035    10.5570     98.466     45.841  32.783172     0.8355      8.807    76.4698 1.6346e+02     5.2810     -0.091     -0.132    10.9005 0.0000e+00
     -0.123     -0.029    10.6109     99.465     45.395  32.537771     0.8190      8.809    80.0851 1.7038e+02     5.2930     -0.128     -0.185    10.8175 0.0000e+00
     -0.136     -0.019    10.6559     99.385     44.919  32.248762     0.8537      8.810    76.8227 1.6938e+02     5.2230     -0.141     -0.205    10.6893 0.0000e+00
     -0.131     -0.006    10.7494     98.258     44.787  32.143707     0.9056      8.812    72.7306 1.6409e+02     5.1172     -0.130     -0.189    10.6679 0.0000e+00
     -0.117      0.008    10.9424     96.302     44.983  32.219160     0.9050      8.814    71.9921 1.6382e+02     5.0382     -0.112     -0.163    10.7501 0.0000e+00
     -0.107      0.018    11.0572     93.691     45.217  32.336254     0.8801      8.816    71.6794 1.6482e+02     5.0198     -0.100     -0.146    10.8418 0.0000e+00
     -0.104      0.019    11.0184     90.689     45.339  32.417490     0.8961      8.819    71.4459 1.6670e+02     5.1343     -0.102     -0.148    10.9202 0.0000e+00
     -0.104      0.015    10.8838     87.545     45.430  32.503528     0.9228      8.822    71.4052 1.6789e+02     5.3290     -0.103     -0.150    10.9196 0.0000e+00
     -0.101      0.012    10.6971     84.467     45.531  32.615258     0.9281      8.824    71.7901 1.6695e+02     5.3929     -0.098     -0.143    10.7916 0.0000e+00
     -0.098      0.018    10.4092     81.745     45.653  32.753388     0.9195      8.825    71.6253 1.6464e+02     5.3267     -0.096     -0.138    10.7330 0.0000e+00
     -0.097      0.038    10.0619     79.464     45.517  32.714520     0.9010      8.828    70.0152 1.6161e+02     5.3142     -0.096     -0.140    10.7426 0.0000e+00
     -0.094      0.064     9.7083     77.400     44.991  32.399110     0.8877      8.830    68.5842 1.6184e+02     5.4119     -0.092     -0.135    10.7606 0.0000e+00
     -0.086      0.087     9.3366     75.270     44.692  32.175396     0.8673      8.832    68.0882 1.6141e+02     5.4490     -0.090     -0.130    10.8097 0.0000e+00
     -0.058      0.102     9.0209     73.018     44.927  32.166630     0.8370      8.835    67.9770 1.5026e+02     5.3198     -0.071     -0.103    10.8685 0.0000e+00
     -0.005      0.106     8.7671     70.850     45.404  32.229495     0.8206      8.839    68.1860 1.3038e+02     5.2148     -0.002     -0.002    10.9254 0.0000e+00
      0.045      0.101     8.5359     69.031     45.814  32.300772     0.8276      8.842    68.4635 1.1629e+02     5.2046      0.057      0.083    11.0199 0.0000e+00
      0.070      0.086     8.2896     67.651     46.005  32.330342     0.8470      8.845    68.6660 1.1462e+02     5.1970      0.075      0.108    11.0872 0.0000e+00
      0.077      0.061     8.0766     66.620     46.033  32.333155     0.8394      8.847    68.8272 1.1480e+02     5.1231      0.077      0.112    10.8492 0.0000e+00
      0.079      0.032     7.8973     65.854     45.980  32.334768     0.8183      8.848    68.9497 1.1164e+02     4.9941      0.074      0.109    10.4467 0.0000e+00
      0.084      0.010     7.7341     65.269     45.909  32.349884     0.8164      8.850    69.0284 1.1039e+02     4.9351      0.083      0.120    10.2018 0.0000e+00
      0.087     -0.002     7.6050     64.770     45.851  32.389116     0.8330      8.853    69.0905 1.1290e+02     4.9900      0.088      0.128    10.1034 0.0000e+00
      0.085     -0.008     7.4910     64.274     45.775  32.428553     0.8611      8.854    69.1850 1.1664e+02     5.0777      0.085      0.124    10.0956 0.0000e+00
      0.079     -0.013     7.3987     63.694     45.669  32.446167     0.8644      8.854    69.2238 1.1864e+02     5.0734      0.079      0.114    10.1525 0.0000e+00
      0.072     -0.017     7.3245     63.008     45.593  32.475297     0.8395      8.856    69.1290 1.2066e+02     5.1087      0.070      0.101    10.2261 0.0000e+00
      0.067     -0.018     7.2565     62.263     45.558  32.527084     0.8351      8.858    69.0716 1.2298e+02     5.2994      0.065      0.094    10.3095 0.0000e+00
      0.063     -0.016     7.1868     61.483     45.510  32.564872     0.8536      8.858    69.1328 1.2422e+02     5.4323      0.062      0.090    10.4214 0.0000e+00
      0.059     -0.013     7.1061     60.698     45.403  32.551614     0.8625      8.858    69.1803 1.2515e+02     5.4511      0.057      0.083    10.5261 0.0000e+00
      0.055     -0.012     7.0115     59.996     45.263  32.493725     0.8510      8.859    69.2158 1.2608e+02     5.3561      0.054      0.078    10.6121 0.0000e+00
      0.053     -0.012     6.9145     59.411     45.251  32.499410     0.8320      8.862    69.3888 1.2636e+02     5.2070      0.052      0.075    10.6976 0.0000e+00
      0.053     -0.014     6.8159     58.914     45.411  32.620365     0.8321      8.866    69.5516 1.2549e+02     5.1500      0.051      0.074    10.7769 0.0000e+00
      0.051     -0.014     6.7116     58.504     45.559  32.750790     0.8359      8.868    69.5499 1.2697e+02     5.1119      0.052      0.076    10.8522 0.0000e+00
      0.046     -0.014     6.6232     58.165     45.588  32.807550     0.8270      8.868    69.5407 1.3070e+02     5.0532      0.047      0.068    10.9074 0.0000e+00
      0.038     -0.015     6.5623     57.889     45.539  32.799154     0.8246      8.868    69.6126 1.3238e+02     5.0210      0.035      0.051    10.9123 0.0000e+00
      0.033     -0.015     6.5062     57.706     45.491  32.776185     0.8327      8.869    69.7301 1.3375e+02     5.0646      0.030      0.044    10.9022 0.0000e+00
      0.032     -0.015     6.4577     57.576     45.484  32.783613     0.8494      8.871    69.8428 1.3359e+02     5.1698      0.032      0.047    10.9330 0.0000e+00
      0.032     -0.012     6.4143     57.431     45.427  32.762094     0.8519      8.873    69.9434 1.3257e+02     5.1661      0.033      0.048    10.9863 0.0000e+00
      0.027     -0.007     6.3749     57.266     45.245  32.642915     0.8298      8.875    70.0849 1.3476e+02     5.1218      0.028      0.039    11.0181 0.0000e+00
      0.021     -0.003     6.3570     57.071     45.030  32.484592     0.8150      8.875    70.1769 1.3749e+02     5.1812      0.019      0.028    11.0199 0.0000e+00
      0.019      0.000     6.3460     56.851     44.971  32.433865     0.8227      8.876    70.1102 1.3890e+02     5.2688      0.017      0.024    11.0298 0.0000e+00
      0.022      0.003     6.3234     56.640     45.117  32.537093     0.8394      8.879    70.0524 1.3637e+02     5.3615      0.021      0.030    11.0600 0.0000e+00
      0.028      0.008     6.3038     56.420     45.181  32.590765     0.8263      8.880    70.1671 1.3341e+02     5.3459      0.029      0.041    11.0803 0.0000e+00
      0.032      0.012     6.2844     56.175     44.963  32.448402     0.7804      8.881    70.3776 1.3470e+02     5.2506      0.033      0.048    11.0689 0.0000e+00
      0.033      0.014     6.2585     55.932     44.698  32.274962     0.7669      8.883    70.4468 1.3496e+02     5.3030      0.032      0.046    11.0544 0.0000e+00
      0.034      0.013     6.2384     55.716     44.666  32.270090     0.7881      8.885    70.4016 1.3214e+02     5.3984      0.031      0.044    11.0526 0.0000e+00
      0.040      0.011     6.2137     55.529     44.814  32.389513     0.8121      8.887    70.4332 1.2988e+02     5.3112      0.040      0.056    11.0604 0.0000e+00
      0.046      0.009     6.1821     55.384     44.890  32.450083     0.8328      8.889    70.4848 1.2970e+02     5.1018      0.048      0.069    11.0806 0.0000e+00
      0.047      0.008     6.1511     55.260     44.864  32.431480     0.8303      8.890    70.5959 1.2988e+02     5.0532      0.047      0.068    11.1000 0.0000e+00
      0.047      0.005     6.1249     55.128     44.855  32.418358     0.8319      8.891    70.8295 1.2903e+02     5.1674      0.045      0.066    11.1248 0.0000e+00
      0.047      0.001     6.1011     55.018     44.872  32.418302     0.8514      8.893    70.9865 1.2842e+02     5.1506      0.046      0.067    11.1381 0.0000e+00
      0.047 4.1012e-07     6.0847     54.899     44.907  32.430778     0.8749      8.895    70.9463 1.2956e+02     5.0214      0.047      0.068    11.1417 0.0000e+00
      0.047      0.000     6.0751     54.733     44.933  32.442313     0.8910      8.895    70.8590 1.2932e+02     4.9710      0.046      0.067    11.1448 0.0000e+00
      0.047      0.000     6.0566     54.552     44.924  32.430883     0.8886      8.895    70.8767 1.2993e+02     5.0195      0.046      0.066    11.1361 0.0000e+00
      0.047      0.001     6.0496     54.378     44.917  32.419453     0.8959      8.897    70.9031 1.3248e+02     5.1633      0.045      0.066    11.1198 0.0000e+00
      0.047      0.001     6.0421     54.209     44.942  32.430998     0.9037      8.900    70.9197 1.3123e+02     5.2756      0.046      0.066    11.1041 0.0000e+00
      0.048      0.001     6.0210     54.035     44.967  32.443573     0.8918      8.902    71.0780 1.3007e+02     5.2497      0.047      0.068    11.0967 0.0000e+00
      0.048      0.002     6.0014     53.835     44.971  32.444613     0.8847      8.903    71.2670 1.3004e+02     5.2271      0.047      0.069    11.0931 0.0000e+00
      0.049      0.002     5.9836     53.658     44.969  32.443573     0.8844      8.904    71.3991 1.2958e+02     5.2069      0.048      0.070    11.0863 0.0000e+00
      0.049      0.002     5.9658     53.535     44.951  32.430999     0.8963      8.905    71.4706 1.3007e+02     5.1411      0.048      0.070    11.0776 0.0000e+00
      0.049      0.002     5.9501     53.384     44.938  32.419463     0.9121      8.906    71.4434 1.2930e+02     5.0815      0.048      0.069    11.0712 0.0000e+00
      0.050      0.002     5.9262     53.193     44.959  32.430978     0.9006      8.908    71.4145 1.2818e+02     5.0328      0.048      0.070    11.0687 0.0000e+00
      0.051      0.002     5.9012     53.005     44.981  32.443331     0.8999      8.908    71.4645 1.2730e+02     5.0643      0.050      0.072    11.0702 0.0000e+00
      0.051      0.002     5.8964     52.829     44.980  32.441945     0.9195      8.910    71.5327 1.2805e+02     5.1898      0.051      0.074    11.0722 0.0000e+00
      0.051      0.002     5.8784     52.674     44.945  32.414210     0.9127      8.912    71.5504 1.2878e+02     5.3194      0.050      0.073    11.0698 0.0000e+00
      0.051      0.001     5.8552     52.514     44.881  32.361755     0.8763      8.912    71.5924 1.2783e+02     5.3332      0.050      0.072    11.0637 0.0000e+00
      0.052      0.001     5.8367     52.338     44.832  32.315236     0.8371      8.914    71.6962 1.2847e+02     5.2201      0.051      0.073    11.0597 0.0000e+00
      0.052      0.001     5.8146     52.171     44.822  32.295825     0.8305      8.916    71.7736 1.2871e+02     5.1486      0.051      0.074    11.0603 0.0000e+00
      0.052      0.002     5.8004     52.018     45.130  32.507687     0.8376      8.916    71.7537 1.2785e+02     5.1174      0.051      0.074    11.0598 0.0000e+00
      0.053      0.002     5.7843     51.898     45.854  33.037007     0.8316      8.916    71.7141 1.2796e+02     5.0481      0.052      0.075    11.0524 0.0000e+00
      0.054      0.001     5.7652     51.974     46.409  33.493503     0.8321      8.917    71.7243 1.2752e+02     4.9934      0.052      0.076    11.0383 0.0000e+00
      0.055      0.001     5.7478     52.388     46.484  33.649624     0.8522      8.918    71.7916 1.2616e+02     5.0021      0.054      0.078    11.0229 0.0000e+00
      0.055      0.000     5.7355     53.085     46.354  33.655888     0.8912      8.919    71.9252 1.2593e+02     5.0856      0.054      0.078    11.0101 0.0000e+00
      0.054      0.000     5.7150     54.050     46.234  33.632785     0.9047      8.920    71.9630 1.2730e+02     5.1142      0.054      0.078    10.9999 0.0000e+00
      0.053      0.001     5.7059     55.306     46.181  33.624139     0.8990      8.922    71.9040 1.2797e+02     5.0409      0.052      0.076    11.0566 0.0000e+00
      0.053      0.001     5.7408     56.686     46.157  33.614830     0.9064      8.923    71.9869 1.2766e+02     4.9847      0.052      0.075    11.1986 0.0000e+00
      0.054      0.003     5.8019     58.034     46.113  33.583676     0.9107      8.924    72.1047 1.2818e+02     5.0160      0.053      0.077    11.3190 0.0000e+00
      0.055      0.006     5.8914     59.276     46.087  33.564690     0.9262      8.925    72.1242 1.2780e+02     5.1114      0.054      0.078    11.3824 0.0000e+00
      0.057      0.011     6.0371     60.225     46.099  33.575609     0.9264      8.925    72.1358 1.2795e+02     5.1132      0.056      0.080    11.4102 0.0000e+00
      0.058      0.014     6.1942     60.720     46.114  33.588799     0.8974      8.926    72.1597 1.2846e+02     5.0033      0.056      0.082    11.4137 0.0000e+00
      0.062      0.015     6.3392     60.880     46.125  33.597279     0.8916      8.928    72.2402 1.2481e+02     4.9789      0.059      0.085    11.4108 0.0000e+00
      0.070      0.014     6.4854     60.920     46.148  33.614696     0.9229      8.928    72.3349 1.2167e+02     5.1590      0.067      0.098    11.4105 0.0000e+00
      0.078      0.012     6.5980     60.853     46.137  33.609052     0.9591      8.929    72.3589 1.2184e+02     5.3708      0.078      0.115    11.4145 0.0000e+00
      0.082      0.010     6.6456     60.707     46.111  33.592488     0.9623      8.929    72.3581 1.2176e+02     5.3533      0.083      0.120    11.4172 0.0000e+00
      0.080      0.007     6.6475     60.573     46.125  33.604762     0.9373      8.930    72.4112 1.2113e+02     5.1870      0.078      0.113    11.4166 0.0000e+00
      0.077      0.003     6.6585     60.449     46.156  33.630563     0.9317      8.931    72.4849 1.2154e+02     5.1019      0.075      0.108    11.4165 0.0000e+00
      0.077      0.000     6.6499     60.373     46.181  33.650675     0.9523      8.932    72.4749 1.2199e+02     5.1449      0.074      0.108    11.4201 0.0000e+00
      0.079     -0.002     6.6243     60.370     46.188  33.657595     0.9617      8.933    72.4619 1.2065e+02     5.1944      0.078      0.113    11.4230 0.0000e+00
      0.082     -0.002     6.6157     60.366     46.176  33.650799     0.9373      8.934    72.5863 1.1981e+02     5.1191      0.081      0.118    11.4247 0.0000e+00
      0.081     -0.002     6.5973     60.316     46.147  33.631946     0.8986      8.935    72.7741 1.2034e+02     5.0550      0.081      0.117    11.4286 0.0000e+00
      0.077     -0.002     6.5859     60.250     46.128  33.619986     0.8933      8.936    72.8400 1.2168e+02     5.1359      0.076      0.110    11.4316 0.0000e+00
      0.073     -0.002     6.5911     60.202     46.146  33.633082     0.9145      8.937    72.7807 1.2220e+02     5.1404      0.071      0.104    11.4323 0.0000e+00
      0.073     -0.003     6.5922     60.186     46.188  33.663393     0.9385      8.938    72.7447 1.2036e+02     5.0075      0.070      0.102    11.4338 0.0000e+00
      0.076     -0.004     6.5840     60.203     46.197  33.669256     0.9596      8.939    72.7488 1.1909e+02     4.9295      0.074      0.107    11.4371 0.0000e+00
      0.077     -0.004     6.5751     60.233     46.158  33.640522     0.9615      8.939    72.7451 1.1890e+02     4.9830      0.077      0.112    11.4394 0.0000e+00
      0.077     -0.003     6.5699     60.243     46.149  33.633205     0.9616      8.940    72.7855 1.1829e+02     5.1075      0.077      0.111    11.4395 0.0000e+00
      0.073     -0.003     6.5673     60.220     46.164  33.644230     0.9520      8.941    72.8929 1.1910e+02     5.1714      0.071      0.103    11.4390 0.0000e+00
      0.068     -0.002     6.5704     60.163     46.168  33.646934     0.9116      8.941    72.9252 1.2056e+02     5.1745      0.065      0.093    11.4384 0.0000e+00
      0.067     -0.001     6.5757     60.058     46.194  33.665890     0.8812      8.943    72.8326 1.2002e+02     5.1799      0.064      0.094    11.4373 0.0000e+00
      0.070      0.002     6.5773     59.927     46.220  33.683097     0.8843      8.945    72.7189 1.1881e+02     5.2360      0.070      0.102    11.4370 0.0000e+00
      0.073      0.006     6.5734     59.796     46.198  33.664652     0.8914      8.945    72.6698 1.1825e+02     5.3067      0.073      0.105    11.4379 0.0000e+00
      0.075      0.008     6.5698     59.665     46.158  33.633196     0.8834      8.946    72.7548 1.1810e+02     5.2831      0.073      0.106    11.4376 0.0000e+00
      0.077      0.009     6.5562     59.534     46.140  33.619987     0.8704      8.947    72.8862 1.1814e+02     5.2245      0.075      0.109    11.4378 0.0000e+00
      0.078      0.008     6.5408     59.396     46.156  33.631835     0.8758      8.948    72.9683 1.1804e+02     5.2131      0.077      0.111    11.4364 0.0000e+00
      0.081      0.007     6.5281     59.248     46.183  33.649554     0.9077      8.950    73.0591 1.1644e+02     5.2820      0.079      0.114    11.4320 0.0000e+00
      0.084      0.005     6.5130     59.092     46.178  33.643890     0.9311      8.951    73.1230 1.1487e+02     5.3056      0.083      0.121    11.4291 0.0000e+00
      0.086      0.003     6.5003     58.928     46.157  33.626796     0.9252      8.951    73.1386 1.1543e+02     5.1561      0.086      0.125    11.4295 0.0000e+00
      0.086      0.002     6.4840     58.714     46.167  33.633206     0.9033      8.951    73.1622 1.1434e+02     5.0117      0.085      0.123    11.4306 0.0000e+00
      0.084      0.000     6.4694     58.449     46.200  33.657952     0.8913      8.951    73.1503 1.1293e+02     5.0295      0.082      0.118    11.4287 0.0000e+00
      0.083     -0.001     6.4505     58.202     46.219  33.672215     0.8960      8.952    73.0810 1.1387e+02     5.0640      0.081      0.117    11.4251 0.0000e+00
      0.084     -0.001     6.4369     58.030     46.225  33.678773     0.9025      8.953    73.0122 1.1412e+02     5.0524      0.082      0.119    11.4229 0.0000e+00
      0.084      0.000     6.4140     57.927     46.214  33.673801     0.9028      8.953    73.0068 1.1392e+02     5.0599      0.083      0.120    11.4228 0.0000e+00
      0.084 -1.842e-08     6.3806     57.874     46.211  33.675545     0.8921      8.954    73.1023 1.1341e+02     4.9835      0.083      0.121    11.4235 0.0000e+00
      0.084 -2.026e-07     6.3515     57.912     46.240  33.699862     0.8977      8.954    73.2194 1.1258e+02     4.9490      0.083      0.120    11.4242 0.0000e+00
      0.084 -1.995e-07     6.3320     58.027     46.254  33.714033     0.9119      8.954    73.2186 1.1220e+02     5.0185      0.082      0.120    11.4258 0.0000e+00
      0.084 1.8810e-08     6.3243     58.180     46.257  33.719999     0.9057      8.956    73.1782 1.1120e+02     5.0036      0.081      0.119    11.4295 0.0000e+00
      0.084 4.0813e-07     6.3125     58.378     46.238  33.708562     0.8973      8.957    73.2477 1.1069e+02     4.9399      0.082      0.118    11.4337 0.0000e+00
      0.084      0.000     6.3178     58.597     46.228  33.702649     0.9030      8.957    73.3704 1.1075e+02     4.9319      0.082      0.120    11.4370 0.0000e+00
      0.084      0.000     6.3335     58.823     46.239  33.711946     0.9247      8.958    73.3706 1.1035e+02     5.0091      0.082      0.120    11.4416 0.0000e+00
      0.084      0.001     6.3458     59.060     46.213  33.694083     0.9264      8.959    73.2511 1.1074e+02     5.0531      0.082      0.119    11.4468 0.0000e+00
      0.084      0.001     6.3704     59.285     46.189  33.677013     0.8983      8.960    73.1293 1.1119e+02     4.9864      0.082      0.119    11.4491 0.0000e+00
      0.084      0.001     6.3939     59.471     46.213  33.695885     0.8758      8.961    73.0164 1.1074e+02     4.9543      0.082      0.119    11.4499 0.0000e+00
      0.085      0.001     6.4175     59.601     46.259  33.731923     0.8627      8.962    72.9192 1.1081e+02     5.0399      0.083      0.121    11.4514 0.0000e+00
      0.086      0.001     6.4449     59.669     46.255  33.732080     0.8572      8.962    72.8146 1.1106e+02     5.1343      0.084      0.122    11.4523 0.0000e+00
      0.086      0.000     6.4700     59.684     46.205  33.697785     0.8500      8.962    72.6977 1.1017e+02     5.1047      0.084      0.122    11.4527 0.0000e+00
      0.085 1.8628e-08     6.4915     59.673     46.203  33.697942     0.8339      8.963    72.6250 1.0973e+02     4.9897      0.083      0.121    11.4538 0.0000e+00
      0.084 2.0490e-07     6.5048     59.623     46.249  33.733981     0.8376      8.965    72.6235 1.1029e+02     4.9735      0.083      0.120    11.4569 0.0000e+00
      0.084 2.0490e-07     6.5124     59.543     46.274  33.752857     0.8614      8.966    72.6799 1.1009e+02     5.0795      0.083      0.120    11.4605 0.0000e+00
      0.084 1.8627e-08     6.5107     59.506     46.251  33.735839     0.8718      8.967    72.7901 1.1058e+02     5.1444      0.083      0.120    11.4626 0.0000e+00
      0.084 1.6934e-09     6.5105     59.501     46.229  33.718551     0.8637      8.967    72.8378 1.1063e+02     5.1089      0.083      0.120    11.4648 0.0000e+00
      0.085 1.5395e-10     6.5066     59.468     46.252  33.734156     0.8377      8.967    72.7406 1.0874e+02     5.1281      0.083      0.121    11.4674 0.0000e+00
      0.085 1.3995e-11     6.4909     59.398     46.253  33.734195     0.8241      8.968    72.6471 1.0808e+02     5.2742      0.083      0.121    11.4681 0.0000e+00
      0.085 1.2723e-12     6.4890     59.276     46.231  33.719023     0.8490      8.968    72.5675 1.0899e+02     5.3040      0.083      0.121    11.4673 0.0000e+00
      0.085 1.1566e-13     6.4929     59.132     46.260  33.741043     0.8724      8.969    72.4666 1.0939e+02     5.2492      0.083      0.121    11.4666 0.0000e+00
      0.084 1.0515e-14     6.4870     59.035     46.267  33.746653     0.8739      8.970    72.4591 1.0905e+02     5.2262      0.083      0.120    11.4650 0.0000e+00
      0.084 9.5590e-16     6.4823     58.985     46.235  33.723413     0.8754      8.971    72.4767 1.0889e+02     5.1286      0.082      0.119    11.4636 0.0000e+00
      0.084 8.6900e-17     6.4675     58.955     46.220  33.713831     0.8987      8.971    72.4220 1.0930e+02     5.0946      0.082      0.119    11.4649 0.0000e+00
      0.085 7.9010e-18     6.4467     58.940     46.190  33.694239     0.9311      8.972    72.3130 1.0930e+02     5.1218      0.083      0.121    11.4665 0.0000e+00
      0.085 7.3002e-19     6.4375     58.953     46.164  33.676872     0.9345      8.973    72.2782 1.0845e+02     5.0475      0.084      0.122    11.4671 0.0000e+00
      0.085 1.9577e-19     6.4336     59.020     46.187  33.694182     0.9065      8.973    72.4307 1.0825e+02     4.9478      0.083      0.121    11.4672 0.0000e+00
      0.085 1.4412e-18     6.4298     59.140     46.213  33.713200     0.8844      8.974    72.5224 1.0800e+02     4.9413      0.083      0.121    11.4686 0.0000e+00
      0.084 1.5789e-17     6.4276     59.268     46.218  33.716475     0.8920      8.975    72.4407 1.0781e+02     5.0025      0.082      0.119    11.4709 0.0000e+00
      0.084 1.7367e-16     6.4273     59.372     46.243  33.733783     0.8982      8.975    72.3888 1.0789e+02     5.0053      0.082      0.120    11.4727 0.0000e+00
      0.084 1.9103e-15     6.4343     59.443     46.242  33.732133     0.8845      8.976    72.4111 1.0837e+02     4.9399      0.083      0.121    11.4737 0.0000e+00
      0.084 2.1014e-14     6.4498     59.484     46.193  33.696526     0.8842      8.977    72.3668 1.0898e+02     4.9644      0.083      0.120    11.4735 0.0000e+00
      0.085 2.3115e-13     6.4652     59.524     46.175  33.683927     0.9035      8.977    72.2837 1.0828e+02     5.0968      0.083      0.121    11.4721 0.0000e+00
      0.085 2.5427e-12     6.4766     59.560     46.205  33.706698     0.9185      8.977    72.2662 1.0842e+02     5.1736      0.082      0.121    11.4711 0.0000e+00
      0.085 2.7969e-11     6.4849     59.555     46.220  33.718064     0.9066      8.978    72.1553 1.0870e+02     5.1081      0.083      0.119    11.4709 0.0000e+00
      0.085 3.0766e-10     6.4875     59.515     46.188  33.694474     0.8763      8.979    71.9753 1.0770e+02     4.9881      0.084      0.120    11.4707 0.0000e+00
      0.084 3.3843e-09     6.4911     59.483     46.161  33.675248     0.8773      8.979    71.9833 1.0756e+02     4.9861      0.083      0.121    11.4710 0.0000e+00
      0.084 3.7227e-08     6.4987     59.481     46.161  33.675939     0.9102      8.980    72.0796 1.0777e+02     5.0836      0.083      0.120    11.4721 0.0000e+00
      0.084 4.0950e-07     6.4966     59.470     46.197  33.702834     0.9237      8.981    72.1066 1.0740e+02     5.1772      0.082      0.119    11.4728 0.0000e+00
      0.084      0.000     6.4907     59.423     46.258  33.746654     0.8996      8.981    72.1383 1.0680e+02     5.2301      0.082      0.119    11.4725 0.0000e+00
      0.084      0.000     6.4851     59.376     46.281  33.761640     0.8763      8.983    72.1178 1.0559e+02     5.2438      0.082      0.120    11.4729 0.0000e+00
      0.084      0.001     6.4873     59.354     46.276  33.757131     0.8923      8.984    72.1174 1.0569e+02     5.2742      0.082      0.120    11.4744 0.0000e+00
      0.085      0.001     6.4885     59.342     46.275  33.755586     0.9096      8.984    72.1330 1.0650e+02     5.2224      0.083      0.121    11.4747 0.0000e+00
      0.085      0.001     6.4798     59.300     46.258  33.742965     0.9025      8.984    72.0492 1.0609e+02     5.0617      0.084      0.120    11.4741 0.0000e+00
      0.085      0.000     6.4749     59.228     46.242  33.731412     0.8980      8.984    72.0497 1.0513e+02     4.9367      0.083      0.121    11.4726 0.0000e+00
      0.085 1.8614e-08     6.4726     59.168     46.258  33.742791     0.8883      8.985    72.0537 1.0502e+02     4.9401      0.084      0.122    11.4707 0.0000e+00
      0.085 2.0475e-07     6.4742     59.143     46.273  33.753664     0.8847      8.985    72.0116 1.0523e+02     5.1372      0.084      0.121    11.4696 0.0000e+00
      0.085 2.0478e-07     6.4698     59.141     46.248  33.735984     0.8963      8.986    72.0563 1.0411e+02     5.3039      0.083      0.121    11.4696 0.0000e+00
      0.085 1.8919e-08     6.4588     59.144     46.224  33.719357     0.8870      8.987    72.0782 1.0279e+02     5.2482      0.083      0.120    11.4697 0.0000e+00
      0.085 5.0510e-09     6.4520     59.163     46.254  33.742962     0.8722      8.987    72.0179 1.0249e+02     5.1811      0.084      0.121    11.4696 0.0000e+00
      0.085 3.7101e-08     6.4495     59.214     46.284  33.767606     0.8844      8.988    72.0158 1.0279e+02     5.2441      0.083      0.121    11.4697 0.0000e+00
      0.084 4.0644e-07     6.4510     59.279     46.274  33.763554     0.9097      8.989    72.1383 1.0209e+02     5.3602      0.083      0.120    11.4696 0.0000e+00
      0.084      0.000     6.4501     59.320     46.263  33.757423     0.9120      8.990    72.2090 1.0199e+02     5.3564      0.083      0.120    11.4706 0.0000e+00
      0.084      0.000     6.4508     59.331     46.262  33.756917     0.8875      8.990    72.1830 1.0223e+02     5.2319      0.083      0.120    11.4725 0.0000e+00
      0.085      0.001     6.4564     59.332     46.263  33.757438     0.8875      8.990    72.0819 1.0083e+02     5.2214      0.083      0.121    11.4763 0.0000e+00
      0.085      0.001     6.4654     59.327     46.273  33.763726     0.9115      8.991    71.9332 1.0091e+02     5.2975      0.083      0.121    11.4803 0.0000e+00
      0.086      0.000     6.4697     59.324     46.282  33.769492     0.9202      8.992    71.8467 1.0158e+02     5.2639      0.084      0.122    11.4817 0.0000e+00
      0.086      0.000     6.4691     59.323     46.275  33.763709     0.9179      8.993    71.8117 1.0057e+02     5.1570      0.084      0.122    11.4817 0.0000e+00
      0.086      0.000     6.4705     59.307     46.267  33.757251     0.9080      8.993    71.7678 9.9790e+01     5.0638      0.084      0.122    11.4808 0.0000e+00
      0.085      0.001     6.4690     59.285     46.265  33.754858     0.9007      8.993    71.7462 1.0011e+02     5.0591      0.083      0.121    11.4798 0.0000e+00
      0.084      0.002     6.4687     59.280     46.239  33.734772     0.9131      8.993    71.8085 1.0045e+02     5.0663      0.082      0.118    11.4792 0.0000e+00
      0.085      0.002     6.4698     59.244     46.200  33.704724     0.9329      8.993    71.8328 9.9283e+01     5.0147      0.083      0.120    11.4787 0.0000e+00
      0.087      0.002     6.4686     59.164     46.206  33.708775     0.9236      8.993    71.7818 9.8031e+01     5.0151      0.086      0.125    11.4785 0.0000e+00
      0.088      0.002     6.4623     59.087     46.223  33.720311     0.8831      8.994    71.7942 9.8057e+01     5.0370      0.088      0.127    11.4776 0.0000e+00
      0.088      0.001     6.4668     59.015     46.221  33.717308     0.8598      8.994    71.8107 9.7732e+01     5.0746      0.087      0.126    11.4753 0.0000e+00
      0.088      0.000     6.4642     58.931     46.250  33.735913     0.8668      8.995    71.7229 9.6938e+01     5.0946      0.086      0.125    11.4738 0.0000e+00
      0.088 -3.725e-08     6.4504     58.799     46.278  33.754917     0.8599      8.997    71.6789 9.6161e+01     5.0397      0.086      0.125    11.4737 0.0000e+00
      0.087 -4.098e-07     6.4447     58.601     46.281  33.756748     0.8263      8.997    71.7088 9.6072e+01     4.9907      0.085      0.124    11.4734 0.0000e+00
      0.087      0.000     6.4360     58.406     46.281  33.758048     0.8095      8.997    71.6548 9.5948e+01     5.0152      0.085      0.124    11.4711 0.0000e+00
      0.088      0.000     6.4302     58.303     46.295  33.770646     0.8239      8.998    71.5422 9.5238e+01     5.0968      0.086      0.126    11.4677 0.0000e+00
      0.088     -0.001     6.4172     58.301     46.307  33.782183     0.8506      8.999    71.4648 9.5122e+01     5.0890      0.087      0.125    11.4657 0.0000e+00
      0.088     -0.001     6.3928     58.369     46.290  33.770646     0.8577      9.000    71.4078 9.4835e+01     4.9887      0.086      0.124    11.4662 0.0000e+00
      0.087     -0.001     6.3657     58.519     46.271  33.758047     0.8517      9.001    71.2830 9.4863e+01     4.9775      0.086      0.125    11.4681 0.0000e+00
      0.086     -0.001     6.3543     58.731     46.268  33.756747     0.8605      9.001    71.1608 9.5538e+01     5.0570      0.084      0.123    11.4709 0.0000e+00
      0.085     -0.000     6.3571     58.963     46.265  33.754928     0.8642      9.001    71.1357 9.5514e+01     5.1293      0.084      0.121    11.4740 0.0000e+00
      0.085      0.000     6.3614     59.181     46.240  33.736043     0.8556      9.001    71.0650 9.4288e+01     5.1001      0.084      0.121    11.4747 0.0000e+00
      0.086      0.001     6.3795     59.323     46.218  33.718744     0.8391      9.001    70.9086 9.3543e+01     4.9776      0.084      0.122    11.4755 0.0000e+00
      0.087      0.001     6.4044     59.377     46.246  33.736110     0.8405      9.002    70.8792 9.3938e+01     4.9796      0.086      0.124    11.4773 0.0000e+00
      0.088      0.001     6.4296     59.410     46.278  33.755672     0.8640      9.003    71.0533 9.3641e+01     5.0906      0.086      0.125    11.4771 0.0000e+00
      0.088      0.001     6.4573     59.446     46.297  33.764927     0.8646      9.004    71.2064 9.3065e+01     5.1237      0.086      0.125    11.4761 0.0000e+00
      0.088      0.000     6.4744     59.449     46.327  33.784566     0.8389      9.004    71.2677 9.2992e+01     5.0728      0.087      0.126    11.4755 0.0000e+00
      0.088 -1.271e-11     6.4757     59.424     46.351  33.802781     0.8199      9.004    71.2788 9.3170e+01     5.0216      0.086      0.125    11.4729 0.0000e+00
      0.087 -1.398e-10     6.4791     59.410     46.339  33.794826     0.8345      9.004    71.1687 9.3205e+01     5.0516      0.085      0.124    11.4673 0.0000e+00
      0.087 -1.538e-09     6.4873     59.426     46.279  33.751830     0.8660      9.004    71.0551 9.3205e+01     5.1271      0.085      0.123    11.4618 0.0000e+00
      0.087 -1.692e-08     6.4870     59.463     46.244  33.727037     0.8764      9.004    71.0236 9.2801e+01     5.1840      0.085      0.124    11.4595 0.0000e+00
      0.087 -1.861e-07     6.4819     59.490     46.273  33.748839     0.8594      9.006    70.9591 9.2290e+01     5.1920      0.086      0.125    11.4609 0.0000e+00
      0.087 -1.861e-07     6.4797     59.490     46.291  33.761664     0.8354      9.007    70.7921 9.2956e+01     5.1900      0.086      0.124    11.4625 0.0000e+00
      0.087 -1.695e-08     6.4813     59.450     46.283  33.755204     0.8368      9.007    70.7247 9.3169e+01     5.2623      0.086      0.124    11.4628 0.0000e+00
      0.087 -1.846e-09     6.4873     59.367     46.256  33.734181     0.8511      9.007    70.8329 9.1962e+01     5.2460      0.085      0.124    11.4635 0.0000e+00
      0.087 -3.526e-09     6.4905     59.268     46.210  33.697806     0.8418      9.007    70.8961 9.1157e+01     5.0615      0.086      0.124    11.4644 0.0000e+00
      0.087 -3.727e-08     6.4908     59.173     46.211  33.696071     0.8239      9.008    70.8864 9.1179e+01     4.9447      0.086      0.124    11.4645 0.0000e+00
      0.088 -4.098e-07     6.4876     59.105     46.236  33.713204     0.8180      9.009    70.8874 9.1287e+01     4.9608      0.086      0.125    11.4637 0.0000e+00
      0.088     -0.000     6.4762     59.076     46.239  33.714621     0.8290      9.010    70.9087 9.1025e+01     5.0174      0.086      0.125    11.4623 0.0000e+00
      0.088     -0.000     6.4660     59.076     46.237  33.713204     0.8405      9.010    70.8849 9.0497e+01     5.0477      0.086      0.125    11.4598 0.0000e+00
      0.088     -0.001     6.4548     59.098     46.213  33.696071     0.8324      9.010    70.8574 9.0446e+01     5.0203      0.086      0.124    11.4562 0.0000e+00
      0.088     -0.001     6.4470     59.122     46.215  33.697802     0.8300      9.011    70.8345 9.1282e+01     5.0273      0.086      0.125    11.4540 0.0000e+00
      0.087     -0.001     6.4452     59.147     46.263  33.734138     0.8365      9.012    70.7805 9.2133e+01     5.0648      0.086      0.125    11.4538 0.0000e+00
      0.086     -0.001     6.4442     59.176     46.289  33.754731     0.8454      9.012    70.7217 9.1758e+01     5.0642      0.085      0.123    11.4539 0.0000e+00
      0.086     -0.000     6.4489     59.206     46.289  33.756447     0.8539      9.012    70.6392 9.1885e+01     5.0532      0.085      0.123    11.4542 0.0000e+00
      0.087      0.000     6.4505     59.261     46.286  33.754900     0.8389      9.012    70.6434 9.1965e+01     5.0011      0.086      0.124    11.4549 0.0000e+00
      0.087      0.000     6.4527     59.333     46.261  33.736024     0.8389      9.013    70.6860 9.0614e+01     4.9800      0.085      0.123    11.4562 0.0000e+00
      0.087      0.001     6.4569     59.398     46.239  33.718552     0.8714      9.014    70.6380 9.0499e+01     5.0030      0.085      0.123    11.4584 0.0000e+00
      0.087      0.001     6.4573     59.463     46.262  33.733984     0.8898      9.014    70.5800 9.0760e+01     5.0058      0.085      0.124    11.4603 0.0000e+00
      0.087      0.001     6.4638     59.528     46.260  33.732268     0.8698      9.013    70.5000 9.0277e+01     5.0148      0.085      0.124    11.4611 0.0000e+00
      0.088      0.000     6.4739     59.573     46.211  33.697805     0.8299      9.013    70.4453 9.0274e+01     4.9747      0.087      0.126    11.4604 0.0000e+00
      0.089     -0.000     6.4800     59.593     46.209  33.697965     0.8239      9.014    70.5210 9.0793e+01     4.9987      0.088      0.128    11.4583 0.0000e+00
      0.088     -0.001     6.4872     59.590     46.258  33.734209     0.8470      9.015    70.5555 9.1240e+01     5.0666      0.088      0.127    11.4564 0.0000e+00
      0.087     -0.002     6.4960     59.556     46.286  33.755360     0.8515      9.016    70.5182 9.0853e+01     5.0092      0.085      0.123    11.4565 0.0000e+00
      0.086     -0.004     6.5002     59.511     46.296  33.763369     0.8362      9.016    70.5861 9.0462e+01     4.9547      0.084      0.122    11.4584 0.0000e+00
      0.086     -0.004     6.5018     59.481     46.299  33.767591     0.8279      9.016    70.6879 9.0497e+01     4.9872      0.085      0.123    11.4600 0.0000e+00
      0.085     -0.004     6.5024     59.443     46.264  33.742962     0.8432      9.017    70.7166 9.0654e+01     5.0609      0.084      0.122    11.4602 0.0000e+00
      0.084     -0.004     6.4981     59.366     46.229  33.719368     0.8539      9.017    70.6746 9.0785e+01     5.0602      0.082      0.118    11.4602 0.0000e+00
      0.082     -0.004     6.4904     59.270     46.252  33.736099     0.8409      9.018    70.6096 9.0868e+01     4.9791      0.080      0.116    11.4621 0.0000e+00
      0.081     -0.003     6.4887     59.188     46.278  33.754924     0.8453      9.019    70.5338 9.0882e+01     5.0370      0.080      0.116    11.4640 0.0000e+00
      0.081     -0.002     6.4867     59.148     46.280  33.756634     0.8644      9.019    70.4468 9.0754e+01     5.2473      0.080      0.115    11.4654 0.0000e+00
      0.080     -0.000     6.4756     59.140     46.279  33.756789     0.8638      9.019    70.4179 9.0927e+01     5.4033      0.079      0.114    11.4673 0.0000e+00
      0.080      0.001     6.4650     59.149     46.277  33.756804     0.8467      9.019    70.3564 9.0399e+01     5.3872      0.078      0.112    11.4679 0.0000e+00
      0.081      0.001     6.4537     59.189     46.275  33.756805     0.8232      9.019    70.3058 8.9752e+01     5.2918      0.078      0.113    11.4667 0.0000e+00
      0.082      0.001     6.4504     59.249     46.274  33.756805     0.8387      9.020    70.4088 9.0124e+01     5.2403      0.080      0.116    11.4663 0.0000e+00
      0.082      0.002     6.4509     59.300     46.274  33.756805     0.9008      9.021    70.3966 9.0000e+01     5.2079      0.081      0.118    11.4685 0.0000e+00
      0.082      0.002     6.4493     59.323     46.274  33.756805     0.9417      9.022    70.1580 8.9708e+01     5.1739      0.081      0.117    11.4705 0.0000e+00
      0.082      0.002     6.4547     59.303     46.275  33.756805     0.9337      9.022    70.0187 8.9550e+01     5.1369      0.080      0.116    11.4712 0.0000e+00
      0.083      0.002     6.4623     59.223     46.275  33.756810     0.9046      9.021    70.0896 8.9279e+01     5.1019      0.081      0.117    11.4719 0.0000e+00
      0.084      0.002     6.4687     59.092     46.276  33.756862     0.8970      9.021    70.1550 8.9443e+01     5.1263      0.082      0.119    11.4732 0.0000e+00
      0.085      0.002     6.4709     58.945     46.279  33.757433     0.9166      9.021    70.0345 8.9566e+01     5.1924      0.083      0.121    11.4733 0.0000e+00
      0.085      0.002     6.4708     58.831     46.292  33.763711     0.9331      9.022    69.8374 8.9649e+01     5.2188      0.084      0.121    11.4718 0.0000e+00
      0.085      0.001     6.4614     58.793     46.302  33.769325     0.9217      9.022    69.6644 8.9357e+01     5.1374      0.083      0.120    11.4713 0.0000e+00
      0.085     -0.001     6.4455     58.808     46.290  33.761851     0.8953      9.022    69.5781 8.8465e+01     5.0280      0.082      0.119    11.4711 0.0000e+00
      0.085     -0.002     6.4289     58.860     46.252  33.736791     0.8977      9.023    69.6550 8.8578e+01     5.0575      0.084      0.121    11.4687 0.0000e+00
      0.085     -0.002     6.4129     58.969     46.226  33.720111     0.9174      9.024    69.7333 8.9282e+01     5.1175      0.084      0.122    11.4648 0.0000e+00
      0.084     -0.001     6.4121     59.088     46.266  33.750518     0.9092      9.023    69.6640 8.9274e+01     5.0713      0.083      0.120    11.4625 0.0000e+00
      0.082      0.000     6.4147     59.166     46.316  33.787217     0.8810      9.023    69.5922 8.9238e+01     4.9771      0.080      0.115    11.4647 0.0000e+00
      0.081 -3.844e-08     6.4163     59.206     46.312  33.783164     0.8683      9.024    69.6391 8.8868e+01     4.9360      0.078      0.113    11.4683 0.0000e+00
      0.082 -4.228e-07     6.4315     59.229     46.288  33.764954     0.8802      9.025    69.6281 8.8148e+01     5.0177      0.079      0.115    11.4710 0.0000e+00
      0.084 -3.856e-07     6.4465     59.229     46.278  33.757381     0.8919      9.026    69.5456 8.7561e+01     5.0767      0.083      0.120    11.4728 0.0000e+00
      0.085 4.1164e-07     6.4542     59.199     46.276  33.755042     0.8841      9.026    69.5024 8.7874e+01     4.9992      0.085      0.123    11.4725 0.0000e+00
      0.085      0.000     6.4578     59.169     46.250  33.736676     0.8863      9.027    69.4495 8.8589e+01     5.0032      0.083      0.121    11.4708 0.0000e+00
      0.082      0.000     6.4604     59.167     46.233  33.725660     0.8936      9.028    69.4233 8.8658e+01     5.1256      0.080      0.116    11.4702 0.0000e+00
      0.081      0.001     6.4624     59.208     46.263  33.748730     0.8802      9.027    69.4429 8.8890e+01     5.1126      0.078      0.114    11.4703 0.0000e+00
      0.081      0.002     6.4565     59.285     46.279  33.761839     0.8580      9.027    69.4288 8.9506e+01     4.9821      0.079      0.114    11.4684 0.0000e+00
      0.083      0.003     6.4526     59.343     46.274  33.757268     0.8332      9.027    69.4250 8.9790e+01     4.9147      0.081      0.118    11.4683 0.0000e+00
      0.085      0.003     6.4519     59.389     46.276  33.756904     0.8306      9.027    69.4829 8.8919e+01     4.9808      0.084      0.121    11.4709 0.0000e+00
      0.087      0.002     6.4547     59.455     46.278  33.757438     0.8587      9.028    69.5263 8.7854e+01     5.0985      0.086      0.124    11.4724 0.0000e+00
      0.087      0.001     6.4677     59.494     46.285  33.763728     0.8826      9.029    69.5196 8.7912e+01     5.1425      0.087      0.126    11.4740 0.0000e+00
      0.086     -0.001     6.4732     59.478     46.290  33.769506     0.8698      9.029    69.4886 8.8485e+01     5.1023      0.086      0.124    11.4738 0.0000e+00
      0.084     -0.002     6.4745     59.433     46.277  33.763852     0.8366      9.029    69.4094 8.8389e+01     5.0222      0.082      0.120    11.4708 0.0000e+00
      0.083     -0.004     6.4869     59.364     46.266  33.758812     0.8392      9.029    69.3357 8.8018e+01     5.0286      0.081      0.117    11.4690 0.0000e+00
      0.083     -0.004     6.4921     59.269     46.281  33.772030     0.8677      9.030    69.1997 8.8274e+01     5.0767      0.083      0.119    11.4699 0.0000e+00
      0.083     -0.003     6.4869     59.147     46.313  33.796774     0.8653      9.031    69.0557 8.9216e+01     5.0228      0.083      0.120    11.4721 0.0000e+00
      0.081     -0.001     6.4825     59.002     46.323  33.804205     0.8429      9.031    69.0572 9.0133e+01     4.9587      0.079      0.116    11.4769 0.0000e+00
      0.078      0.001     6.4740     58.882     46.315  33.798436     0.8307      9.031    69.0458 9.0810e+01     4.9500      0.076      0.109    11.4820 0.0000e+00
      0.078      0.002     6.4631     58.841     46.305  33.790476     0.8339      9.031    69.0039 9.1479e+01     4.9859      0.075      0.109    11.4836 0.0000e+00
      0.082      0.002     6.4507     58.866     46.279  33.771401     0.8572      9.031    68.9807 9.1025e+01     5.0168      0.081      0.118    11.4844 0.0000e+00
      0.086      0.002     6.4323     58.930     46.260  33.758131     0.8625      9.031    68.9374 8.9959e+01     4.9827      0.086      0.125    11.4855 0.0000e+00
      0.086      0.002     6.4159     59.024     46.257  33.756924     0.8470      9.031    68.9109 9.0402e+01     5.0177      0.086      0.124    11.4850 0.0000e+00
      0.084      0.001     6.4135     59.126     46.255  33.756815     0.8533      9.032    68.9184 9.1573e+01     5.1322      0.082      0.118    11.4838 0.0000e+00
      0.084     -0.002     6.4175     59.210     46.255  33.756814     0.8643      9.032    68.9417 9.1033e+01     5.1713      0.081      0.117    11.4837 0.0000e+00
      0.084     -0.003     6.4239     59.265     46.256  33.756918     0.8543      9.033    68.9352 9.0156e+01     5.1146      0.083      0.120    11.4841 0.0000e+00
      0.084     -0.003     6.4349     59.269     46.259  33.758063     0.8336      9.033    68.8387 9.0139e+01     5.0280      0.083      0.121    11.4853 0.0000e+00
      0.083     -0.002     6.4476     59.214     46.277  33.770657     0.8218      9.033    68.7222 8.9858e+01     4.9783      0.081      0.117    11.4869 0.0000e+00
      0.081     -0.001     6.4562     59.140     46.294  33.782296     0.8444      9.033    68.6444 9.0119e+01     4.9914      0.079      0.114    11.4875 0.0000e+00
      0.080      0.000     6.4634     59.087     46.280  33.771905     0.8908      9.034    68.5870 9.0654e+01     5.0838      0.078      0.113    11.4863 0.0000e+00
      0.081      0.001     6.4654     59.045     46.280  33.771904     0.9082      9.035    68.6303 9.1306e+01     5.1047      0.079      0.114    11.4850 0.0000e+00
      0.082      0.002     6.4568     58.985     46.295  33.782286     0.8877      9.035    68.7375 9.1531e+01     5.0050      0.080      0.116    11.4849 0.0000e+00
      0.084      0.002     6.4466     58.923     46.280  33.770543     0.8679      9.035    68.7654 9.0251e+01     5.0056      0.083      0.120    11.4847 0.0000e+00
      0.085      0.003     6.4418     58.901     46.265  33.756805     0.8688      9.036    68.7086 8.9610e+01     5.1123      0.084      0.122    11.4841 0.0000e+00
      0.084      0.007     6.4392     58.921     46.251  33.743077     0.8728      9.036    68.6538 9.0460e+01     5.1679      0.083      0.121    11.4834 0.0000e+00
      0.084      0.016     6.4321     58.954     46.239  33.731438     0.8584      9.036    68.7047 9.1724e+01     5.1317      0.082      0.117    11.4831 0.0000e+00
      0.085      0.030     6.4229     59.000     46.254  33.742964     0.8458      9.036    68.8938 9.1282e+01     5.1522      0.080      0.116    11.4828 0.0000e+00
      0.091      0.047     6.4205     59.064     46.268  33.755552     0.8699      9.036    69.1328 8.8598e+01     5.2797      0.087      0.126    11.4798 0.0000e+00
      0.104      0.063     6.4265     59.167     46.264  33.756749     0.9080      9.035    69.2713 8.6503e+01     5.3411      0.100      0.144    11.4749 0.0000e+00
      0.125      0.074     6.4289     59.326     46.260  33.757434     0.9148      9.032    69.2787 8.4952e+01     5.2792      0.119      0.174    11.4710 0.0000e+00
      0.155      0.076     6.4345     59.507     46.262  33.763839     0.9197      9.028    69.2214 8.2423e+01     5.1126      0.150      0.218    11.4717 0.0000e+00
      0.185      0.070     6.4401     59.659     46.264  33.770761     0.9586      9.025    69.2670 7.9902e+01     5.0000      0.185      0.268    11.4760 0.0000e+00
      0.206      0.057     6.4490     59.778     46.268  33.777681     1.0017      9.024    69.4861 7.8621e+01     5.0790      0.207      0.300    11.4799 0.0000e+00
      0.216      0.040     6.4675     59.868     46.273  33.784068     1.0331      9.024    69.7201 7.8392e+01     5.1801      0.213      0.309    11.4835 0.0000e+00
      0.217      0.022     6.4897     59.925     46.275  33.784543     0.9967      9.023    69.8586 7.9000e+01     5.1288      0.213      0.309    11.4881 0.0000e+00
      0.215      0.009     6.5042     59.955     46.278  33.783428     0.9027      9.023    69.8697 8.0225e+01     5.0402      0.211      0.306    11.4951 0.0000e+00
      0.214      0.001     6.5164     59.956     46.267  33.770587     0.8624      9.022    69.8549 8.0984e+01     5.0984      0.209      0.303    11.5011 0.0000e+00
      0.214     -0.007     6.5264     59.952     46.253  33.756169     0.8596      9.022    70.2825 8.1234e+01     5.1840      0.210      0.304    11.5033 0.0000e+00
      0.214     -0.027     6.5315     59.955     46.230  33.735984     0.8433      9.023    76.0714 8.1807e+01     5.1527      0.211      0.306    11.5024 0.0000e+00
      0.214     -0.062     6.5372     59.955     46.209  33.716860     0.8243      9.024    81.9439 8.2351e+01     5.0613      0.210      0.304    11.4984 0.0000e+00
      0.212     -0.105     6.5352     59.943     46.212  33.715277     0.8375      9.025    77.9623 8.3619e+01     5.0698      0.212      0.308    11.4923 0.0000e+00
      0.192     -0.143     6.5361     59.916     46.220  33.716850     0.8699      9.025    78.0038 8.9307e+01     5.1872      0.205      0.300    11.4876 0.0000e+00
      0.133     -0.166     6.5371     59.836     46.253  33.735870     0.8746      9.025    86.8346 1.0088e+02     5.2511      0.143      0.207    11.4841 0.0000e+00
      0.050     -0.172     6.5389     59.679     46.286  33.754903     0.8524      9.025    86.9077 1.1150e+02     5.2281      0.040      0.058    11.4797 0.0000e+00
     -0.018     -0.161     6.5368     59.470     46.294  33.756634     0.8269      9.024    78.7157 1.1657e+02     5.2163     -0.032     -0.046    11.4758 0.0000e+00
     -0.053     -0.131     6.5369     59.231     46.295  33.756795     0.8324      9.024    78.3847 1.2058e+02     5.3137     -0.061     -0.087    11.4716 0.0000e+00
     -0.066     -0.086     6.5311     58.975     46.291  33.756845     0.8606      9.023    81.8730 1.2407e+02     5.4148     -0.065     -0.095    11.4660 0.0000e+00
     -0.074     -0.041     6.5114     58.717     46.286  33.757249     0.8679      9.022    77.5290 1.2550e+02     5.3108     -0.071     -0.103    11.4604 0.0000e+00
     -0.080     -0.019     6.4905     58.533     46.286  33.761678     0.8626      9.021    72.6671 1.2510e+02     5.0820     -0.083     -0.121    11.4553 0.0000e+00
     -0.077     -0.025     6.4622     58.469     46.261  33.746957     0.8713      9.020    71.8727 1.2020e+02     4.9705     -0.080     -0.116    11.4540 0.0000e+00
     -0.065     -0.051     6.4360     58.461     46.200  33.706157     0.8896      9.020    72.1404 1.1117e+02     5.0219     -0.062     -0.090    11.4581 0.0000e+00
     -0.060     -0.084     6.4020     58.476     46.204  33.712501     0.9015      9.021    73.2361 1.1706e+02     5.0888     -0.047     -0.068    11.4640 0.0000e+00
     -0.085     -0.120     6.3777     58.494     46.265  33.760216     0.8895      9.023    78.9262 1.5640e+02     5.0276     -0.067     -0.097    11.4690 0.0000e+00
     -0.144     -0.158     6.3759     58.414     46.285  33.775522     0.8699      9.026    88.9716 2.0540e+02     4.9304     -0.141     -0.204    11.4718 0.0000e+00
     -0.209     -0.184     6.3754     58.231     46.278  33.770678     0.8725      9.030    93.9418 2.3206e+02     4.9379     -0.216     -0.314    11.4749 0.0000e+00
     -0.260     -0.188     6.3742     58.059     46.271  33.765089     0.9042      9.032    89.7195 2.4326e+02     5.0164     -0.252     -0.366    11.4801 0.0000e+00
     -0.310     -0.167     6.3824     57.869     46.281  33.771397     0.9365      9.030    81.6280 2.5814e+02     5.0599     -0.299     -0.434    11.4832 0.0000e+00
     -0.365     -0.132     6.3769     57.661     46.300  33.783497     0.9393      9.029    80.2553 2.7371e+02     5.0543     -0.368     -0.534    11.4837 0.0000e+00
     -0.400     -0.101     6.3441     57.540     46.304  33.784502     0.9375      9.030    85.2535 2.7851e+02     5.0856     -0.404     -0.586    11.4839 0.0000e+00
     -0.407     -0.078     6.3322     57.465     46.304  33.783539     0.9567      9.031    85.1894 2.7485e+02     5.1302     -0.403     -0.584    11.4838 0.0000e+00
     -0.402     -0.058     6.3137     57.410     46.287  33.771846     0.9794      9.032    82.8350 2.7216e+02     5.1505     -0.391     -0.567    11.4827 0.0000e+00
     -0.407     -0.038     6.2798     57.411     46.283  33.770026     0.9708      9.033    85.5233 2.7381e+02     5.1256     -0.392     -0.569    11.4806 0.0000e+00
     -0.427     -0.022     6.2745     57.397     46.270  33.761532     0.9444      9.033    88.1828 2.7503e+02     5.0331     -0.418     -0.606    11.4780 0.0000e+00
     -0.448     -0.012     6.2673     57.292     46.230  33.732589     0.9436      9.034    87.6295 2.7555e+02     5.0235     -0.446     -0.648    11.4767 0.0000e+00
     -0.454     -0.004     6.2558     57.126     46.237  33.737308     0.9358      9.034    86.6632 2.8209e+02     5.1795     -0.452     -0.656    11.4777 0.0000e+00
     -0.442      0.003     6.2615     56.932     46.261  33.755142     0.8922      9.035    86.4807 2.9654e+02     5.3486     -0.435     -0.632    11.4801 0.0000e+00
     -0.423      0.011     6.2634     56.665     46.265  33.757884     0.8571      9.035    85.4220 3.0949e+02     5.3611     -0.411     -0.597    11.4813 0.0000e+00
     -0.412      0.021     6.2498     56.329     46.281  33.770459     0.8364      9.034    83.3277 3.1175e+02     5.2619     -0.398     -0.576    11.4809 0.0000e+00
     -0.417      0.032     6.2284     56.018     46.294  33.780298     0.8412      9.030    82.1521 3.0708e+02     5.2764     -0.405     -0.588    11.4803 0.0000e+00
     -0.427      0.048     6.2116     55.798     46.250  33.749949     0.8905      9.026    79.7252 3.0535e+02     5.4001     -0.424     -0.616    11.4806 0.0000e+00
     -0.424      0.069     6.1833     55.701     46.207  33.720738     0.9161      9.026    77.5591 3.1060e+02     5.3901     -0.425     -0.616    11.4809 0.0000e+00
     -0.400      0.090     6.1398     55.724     46.236  33.744333     0.8931      9.028    79.2786 3.1699e+02     5.2586     -0.398     -0.577    11.4813 0.0000e+00
     -0.359      0.106     6.1049     55.864     46.284  33.781458     0.8626      9.030    80.9856 3.1280e+02     5.1427     -0.356     -0.516    11.4822 0.0000e+00
     -0.311      0.110     6.0787     56.146     46.292  33.788942     0.8542      9.030    80.8180 3.0140e+02     5.0815     -0.300     -0.436    11.4832 0.0000e+00
     -0.273      0.097     6.0683     56.551     46.267  33.771378     0.8751      9.030    80.6077 2.9845e+02     5.0644     -0.260     -0.377    11.4862 0.0000e+00
     -0.251      0.072     6.0717     57.009     46.250  33.759432     0.8826      9.030    80.5927 3.0155e+02     5.0046     -0.242     -0.351    11.4893 0.0000e+00
     -0.241      0.040     6.0838     57.466     46.268  33.771394     0.8856      9.031    80.5503 3.0262e+02     5.0072     -0.232     -0.337    11.4909 0.0000e+00
     -0.240      0.011     6.1153     57.842     46.293  33.789123     0.9038      9.032    80.3538 3.0211e+02     5.1312     -0.233     -0.338    11.4933 0.0000e+00
     -0.245     -0.009     6.1633     58.059     46.287  33.783449     0.9113      9.033    80.1961 3.0134e+02     5.2055     -0.239     -0.348    11.4945 0.0000e+00
     -0.255     -0.019     6.2140     58.118     46.265  33.766240     0.9182      9.033    80.1069 3.0118e+02     5.1532     -0.250     -0.362    11.4939 0.0000e+00
     -0.265     -0.020     6.2673     58.069     46.273  33.771388     0.9118      9.033    80.0493 3.0098e+02     5.0458     -0.261     -0.378    11.4929 0.0000e+00
     -0.272     -0.016     6.3130     57.963     46.289  33.782249     0.8840      9.034    79.9289 3.0021e+02     5.0347     -0.268     -0.390    11.4918 0.0000e+00
     -0.275     -0.007     6.3357     57.848     46.274  33.770661     0.8650      9.034    79.5975 2.9982e+02     5.1208     -0.271     -0.394    11.4906 0.0000e+00
     -0.275      0.003     6.3399     57.788     46.258  33.758176     0.8657      9.035    79.3121 3.0038e+02     5.1649     -0.271     -0.392    11.4897 0.0000e+00
     -0.271      0.010     6.3331     57.813     46.258  33.758186     0.8667      9.035    79.2323 3.0138e+02     5.0901     -0.266     -0.386    11.4887 0.0000e+00
     -0.265      0.012     6.3201     57.900     46.275  33.770780     0.8526      9.035    79.1479 3.0242e+02     4.9678     -0.260     -0.378    11.4876 0.0000e+00
     -0.259      0.010     6.3047     58.000     46.293  33.783559     0.8447      9.036    78.9799 3.0287e+02     4.9834     -0.253     -0.367    11.4869 0.0000e+00
     -0.253      0.005     6.2964     58.076     46.296  33.785803     0.8633      9.036    78.8368 3.0287e+02     5.1078     -0.246     -0.358    11.4865 0.0000e+00
     -0.252     -0.001     6.3008     58.132     46.312  33.797911     0.8768      9.037    78.8798 3.0279e+02     5.1054     -0.245     -0.356    11.4865 0.0000e+00
     -0.255     -0.006     6.3124     58.188     46.319  33.803070     0.8588      9.037    78.9834 3.0241e+02     4.9555     -0.250     -0.362    11.4865 0.0000e+00
     -0.261     -0.010     6.3248     58.212     46.294  33.784728     0.8373      9.037    78.9716 3.0178e+02     4.8665     -0.255     -0.372    11.4866 0.0000e+00
     -0.266     -0.011     6.3335     58.194     46.270  33.766475     0.8413      9.037    78.8227 3.0138e+02     4.9516     -0.262     -0.380    11.4866 0.0000e+00
     -0.271     -0.009     6.3365     58.179     46.279  33.772714     0.8577      9.038    78.6454 3.0163e+02     5.0964     -0.267     -0.387    11.4867 0.0000e+00
     -0.272     -0.005     6.3462     58.172     46.311  33.796720     0.8521      9.040    78.5491 3.0215e+02     5.1144     -0.267     -0.388    11.4868 0.0000e+00
     -0.271     -0.001     6.3491     58.137     46.319  33.802950     0.8313      9.040    78.4319 3.0262e+02     5.0327     -0.266     -0.386    11.4869 0.0000e+00
     -0.270      0.002     6.3438     58.059     46.293  33.784592     0.8234      9.039    78.3477 3.0300e+02     4.9961     -0.265     -0.384    11.4864 0.0000e+00
     -0.268      0.003     6.3427     57.955     46.265  33.765097     0.8311      9.039    78.3057 3.0290e+02     5.0480     -0.263     -0.382    11.4859 0.0000e+00
     -0.266      0.002     6.3434     57.833     46.255  33.757562     0.8501      9.040    78.1822 3.0289e+02     5.0785     -0.260     -0.379    11.4861 0.0000e+00
     -0.265      0.001     6.3412     57.707     46.253  33.756938     0.8531      9.041    78.0582 3.0354e+02     5.0235     -0.260     -0.378    11.4867 0.0000e+00
     -0.266     -0.002     6.3301     57.586     46.253  33.757552     0.8422      9.041    78.0977 3.0411e+02     5.0329     -0.261     -0.379    11.4875 0.0000e+00
     -0.267     -0.004     6.3197     57.468     46.262  33.764983     0.8431      9.041    78.2296 3.0391e+02     5.0887     -0.261     -0.378    11.4880 0.0000e+00
     -0.268     -0.006     6.3053     57.385     46.286  33.783345     0.8637      9.042    78.1897 3.0348e+02     5.0838     -0.263     -0.381    11.4881 0.0000e+00
     -0.271     -0.006     6.2907     57.360     46.294  33.789227     0.9009      9.042    78.0452 3.0320e+02     5.0420     -0.266     -0.385    11.4885 0.0000e+00
     -0.273     -0.005     6.2789     57.400     46.270  33.772652     0.9097      9.042    77.9452 3.0270e+02     4.9589     -0.268     -0.389    11.4892 0.0000e+00
     -0.275     -0.003     6.2634     57.513     46.270  33.773276     0.8942      9.042    77.8421 3.0208e+02     4.9664     -0.269     -0.391    11.4902 0.0000e+00
     -0.275      0.000     6.2535     57.674     46.300  33.796772     0.9060      9.043    77.7443 3.0180e+02     5.0996     -0.270     -0.392    11.4909 0.0000e+00
     -0.274      0.003     6.2514     57.830     46.306  33.802965     0.9444      9.045    77.6230 3.0212e+02     5.1687     -0.269     -0.390    11.4914 0.0000e+00
     -0.273      0.005     6.2538     57.925     46.279  33.784717     0.9670      9.045    77.4083 3.0268e+02     5.1189     -0.267     -0.388    11.4920 0.0000e+00
     -0.270      0.007     6.2677     57.929     46.253  33.766468     0.9548      9.045    77.2143 3.0304e+02     5.0103     -0.265     -0.384    11.4931 0.0000e+00
     -0.267      0.007     6.2874     57.864     46.260  33.772656     0.9553      9.045    77.0828 3.0308e+02     4.9818     -0.262     -0.380    11.4945 0.0000e+00
     -0.265      0.006     6.3058     57.770     46.290  33.796091     0.9805      9.045    76.9372 3.0288e+02     5.0474     -0.260     -0.377    11.4962 0.0000e+00
     -0.264      0.005     6.3186     57.690     46.288  33.796038     0.9765      9.045    76.9162 3.0285e+02     5.0528     -0.259     -0.375    11.4980 0.0000e+00
     -0.264      0.005     6.3163     57.667     46.254  33.772027     0.9570      9.045    76.9152 3.0299e+02     5.0125     -0.259     -0.375    11.4996 0.0000e+00
     -0.263      0.006     6.3079     57.695     46.235  33.759547     0.9528      9.045    76.7532 3.0299e+02     5.0041     -0.258     -0.374    11.5007 0.0000e+00
     -0.262      0.007     6.2965     57.745     46.251  33.772037     0.9663      9.045    75.7307 3.0267e+02     5.0538     -0.258     -0.374    11.5019 0.0000e+00
     -0.261      0.010     6.2841     57.801     46.282  33.796152     0.9956      9.045    74.7056 3.0237e+02     5.1348     -0.256     -0.372    11.5034 0.0000e+00
     -0.258      0.015     6.2829     57.842     46.282  33.797338     0.9996      9.046    75.4581 3.0252e+02     5.1300     -0.253     -0.366    11.5045 0.0000e+00
     -0.254      0.020     6.2873     57.872     46.265  33.786375     0.9730      9.047    76.3120 3.0254e+02     5.0636     -0.248     -0.360    11.5056 0.0000e+00
     -0.249      0.027     6.2922     57.902     46.270  33.790493     0.9315      9.048    75.3071 3.0121e+02     5.0502     -0.245     -0.355    11.5066 0.0000e+00
     -0.242      0.037     6.3000     57.945     46.260  33.783686     0.8985      9.047    73.2022 2.9878e+02     5.1045     -0.239     -0.346    11.5078 0.0000e+00
     -0.233      0.048     6.3031     57.996     46.239  33.767519     0.9068      9.047    72.9742 2.9718e+02     5.1054     -0.229     -0.332    11.5093 0.0000e+00
     -0.220      0.059     6.3065     58.052     46.265  33.785350     0.9144      9.047    75.0453 2.9460e+02     5.0273     -0.217     -0.316    11.5108 0.0000e+00
     -0.203      0.066     6.3084     58.153     46.300  33.808940     0.8829      9.047    76.3038 2.8384e+02     5.0129     -0.201     -0.291    11.5120 0.0000e+00
     -0.181      0.069     6.3135     58.311     46.288  33.798964     0.8416      9.047    76.4897 2.5818e+02     5.0688     -0.179     -0.259    11.5118 0.0000e+00
     -0.156      0.065     6.3202     58.450     46.280  33.791618     0.8240      9.047    76.6899 2.2478e+02     5.1228     -0.152     -0.221    11.5113 0.0000e+00
     -0.135      0.055     6.3239     58.563     46.271  33.783562     0.8285      9.047    76.7459 2.0339e+02     5.1187     -0.129     -0.187    11.5099 0.0000e+00
     -0.122      0.041     6.3332     58.653     46.248  33.765008     0.8208      9.047    76.7359 1.9906e+02     5.0539     -0.118     -0.170    11.5082 0.0000e+00
     -0.116      0.026     6.3565     58.605     46.238  33.757614     0.8142      9.047    76.7419 1.9887e+02     5.0225     -0.113     -0.162    11.5065 0.0000e+00
     -0.115      0.013     6.3729     58.461     46.237  33.757613     0.8485      9.048    76.6460 2.0003e+02     5.0810     -0.112     -0.161    11.5046 0.0000e+00
     -0.117      0.006     6.3788     58.355     46.246  33.764988     0.8767      9.048    76.5235 2.0885e+02     5.1451     -0.115     -0.167    11.5028 0.0000e+00
     -0.120      0.008     6.4022     58.276     46.271  33.783344     0.8729      9.047    76.2924 2.1185e+02     5.0809     -0.118     -0.171    11.5011 0.0000e+00
     -0.120      0.018     6.3920     58.202     46.278  33.789215     0.8603      9.047    75.8310 1.9789e+02     4.9884     -0.119     -0.172    11.5008 0.0000e+00
     -0.118      0.036     6.3672     58.210     46.253  33.772532     0.8493      9.047    74.5579 1.8755e+02     5.0847     -0.116     -0.169    11.5018 0.0000e+00
     -0.111      0.056     6.3594     58.305     46.250  33.771970     0.8650      9.047    72.5153 1.8792e+02     5.2884     -0.113     -0.162    11.5028 0.0000e+00
     -0.095      0.071     6.3529     58.414     46.261  33.782423     0.8754      9.046    71.3532 1.7877e+02     5.3341     -0.101     -0.144    11.5033 0.0000e+00
     -0.065      0.078     6.3395     58.570     46.246  33.772027     0.8499      9.044    71.1760 1.6068e+02     5.2271     -0.066     -0.095    11.5036 0.0000e+00
     -0.029      0.081     6.3374     58.741     46.247  33.773162     0.8314      9.043    70.9750 1.4679e+02     5.1560     -0.025     -0.036    11.5053 0.0000e+00
     -0.003      0.081     6.3576     58.842     46.277  33.796147     0.8429      9.042    70.8150 1.3858e+02     5.1918      0.002      0.004    11.5081 0.0000e+00
      0.009      0.079     6.3608     58.918     46.277  33.796147     0.8730      9.041    70.8773 1.3571e+02     5.3182      0.011      0.015    11.5107 0.0000e+00
      0.015      0.075     6.3803     59.014     46.246  33.773162     0.8954      9.041    70.9540 1.3126e+02     5.3517      0.009      0.013    11.5117 0.0000e+00
      0.030      0.074     6.4066     59.086     46.243  33.772017     0.8970      9.041    70.9680 1.1917e+02     5.2898      0.025      0.036    11.5116 0.0000e+00
      0.055      0.076     6.4117     59.107     46.254  33.782314     0.8927      9.039    70.9606 1.0552e+02     5.2877      0.055      0.079    11.5122 0.0000e+00
      0.081      0.077     6.4178     59.115     46.235  33.770769     0.9011      9.039    70.9498 9.8101e+01     5.2920      0.080      0.117    11.5122 0.0000e+00
      0.105      0.074     6.4319     59.141     46.217  33.759329     0.9159      9.039    71.0100 9.5509e+01     5.2739      0.103      0.149    11.5113 0.0000e+00
      0.126      0.065     6.4413     59.201     46.232  33.770878     0.9056      9.040    71.0858 9.1393e+01     5.2389      0.126      0.181    11.5126 0.0000e+00
      0.141      0.052     6.4398     59.286     46.249  33.783516     0.8932      9.040    71.0067 8.6493e+01     5.2790      0.141      0.205    11.5159 0.0000e+00
      0.149      0.040     6.4400     59.401     46.252  33.785241     0.9075      9.040    70.9141 8.2666e+01     5.3826      0.146      0.213    11.5186 0.0000e+00
      0.154      0.031     6.4413     59.561     46.262  33.791741     0.9115      9.040    70.9984 8.0111e+01     5.3640      0.151      0.219    11.5201 0.0000e+00
      0.159      0.026     6.4489     59.733     46.272  33.798662     0.8919      9.040    71.0798 7.9221e+01     5.1910      0.157      0.227    11.5211 0.0000e+00
      0.164      0.029     6.4579     59.868     46.281  33.805481     0.8786      9.040    71.3822 7.8124e+01     4.9995      0.158      0.229    11.5214 0.0000e+00
      0.169      0.046     6.4685     59.937     46.287  33.810739     0.8836      9.040    71.9870 7.7010e+01     4.9953      0.165      0.239    11.5205 0.0000e+00
      0.177      0.076     6.4888     59.964     46.269  33.798779     0.9017      9.040    72.5408 7.6273e+01     5.1405      0.174      0.251    11.5196 0.0000e+00
      0.187      0.108     6.5086     59.989     46.254  33.787764     0.8978      9.040    72.9156 7.4674e+01     5.1836      0.181      0.262    11.5189 0.0000e+00
      0.212      0.133     6.5259     60.037     46.277  33.804453     0.8613      9.040    73.0771 7.1055e+01     5.1405      0.194      0.282    11.5188 0.0000e+00
      0.266      0.149     6.5316     60.090     46.285  33.810221     0.8352      9.040    73.2035 6.4768e+01     5.1657      0.252      0.364    11.5199 0.0000e+00
      0.335      0.155     6.5322     60.083     46.263  33.794061     0.8406      9.040    73.4112 5.9568e+01     5.2497      0.341      0.494    11.5213 0.0000e+00
      0.384      0.150     6.5344     60.006     46.271  33.799404     0.8680      9.041    73.6106 5.6999e+01     5.3015      0.386      0.560    11.5217 0.0000e+00
      0.411      0.133     6.5389     59.885     46.286  33.811373     0.8679      9.042    73.8074 5.5131e+01     5.2451      0.402      0.582    11.5212 0.0000e+00
      0.435      0.107     6.5500     59.760     46.285  33.811884     0.8307      9.042    73.9830 5.3559e+01     5.1832      0.429      0.622    11.5215 0.0000e+00
      0.458      0.080     6.5478     59.664     46.274  33.805586     0.8089      9.041    74.0997 5.1728e+01     5.2018      0.451      0.654    11.5217 0.0000e+00
      0.477      0.060     6.5392     59.608     46.264  33.798673     0.7964      9.040    74.1858 5.0076e+01     5.2660      0.466      0.677    11.5209 0.0000e+00
      0.492      0.046     6.5242     59.616     46.256  33.791749     0.7704      9.041    74.2495 4.9090e+01     5.3110      0.485      0.704    11.5210 0.0000e+00
      0.501      0.034     6.5084     59.716     46.250  33.785310     0.7441      9.042    74.3535 4.8969e+01     5.2667      0.494      0.717    11.5229 0.0000e+00
      0.503      0.024     6.4982     59.885     46.251  33.784260     0.7198      9.043    74.4963 4.9076e+01     5.2422      0.492      0.714    11.5250 0.0000e+00
      0.504      0.016     6.4908     60.085     46.247  33.779059     0.7190      9.043    74.5999 4.8632e+01     5.2540      0.493      0.716    11.5255 0.0000e+00
      0.508      0.011     6.4903     60.263     46.257  33.785861     0.7591      9.043    74.7454 4.7908e+01     5.2049      0.498      0.723    11.5243 0.0000e+00
      0.512      0.008     6.5021     60.307     46.280  33.803059     0.8050      9.043    74.8792 4.7420e+01     5.0927      0.502      0.729    11.5222 0.0000e+00
      0.515      0.006     6.5245     60.231     46.271  33.796667     0.8072      9.043    74.8412 4.7316e+01     4.9912      0.505      0.733    11.5197 0.0000e+00
      0.515      0.005     6.5441     60.143     46.236  33.772018     0.7781      9.043    74.8888 4.7187e+01     4.9678      0.506      0.734    11.5173 0.0000e+00
      0.514      0.006     6.5737     60.074     46.217  33.758819     0.7939      9.044    75.1104 4.6963e+01     5.0826      0.504      0.731    11.5164 0.0000e+00
      0.513      0.010     6.5765     60.040     46.223  33.763963     0.8491      9.044    75.1973 4.6660e+01     5.2856      0.502      0.729    11.5173 0.0000e+00
      0.513      0.016     6.5604     60.058     46.231  33.770772     0.8715      9.044    75.1649 4.6380e+01     5.3394      0.502      0.729    11.5180 0.0000e+00
      0.518      0.023     6.5524     60.109     46.238  33.777692     0.8564      9.045    75.1485 4.5970e+01     5.2552      0.506      0.734    11.5187 0.0000e+00
      0.528      0.029     6.5433     60.181     46.243  33.784197     0.8329      9.045    75.1713 4.5375e+01     5.2237      0.518      0.751    11.5192 0.0000e+00
      0.539      0.032     6.5386     60.296     46.242  33.785973     0.8204      9.045    75.2692 4.4727e+01     5.2997      0.530      0.768    11.5198 0.0000e+00
      0.550      0.031     6.5413     60.415     46.257  33.799183     0.8039      9.046    75.3853 4.4084e+01     5.3208      0.538      0.781    11.5214 0.0000e+00
      0.560      0.027     6.5485     60.483     46.280  33.817024     0.7753      9.046    75.4566 4.3639e+01     5.2050      0.550      0.799    11.5238 0.0000e+00
      0.567      0.022     6.5521     60.483     46.272  33.811351     0.7658      9.046    75.4422 4.3409e+01     5.1299      0.557      0.808    11.5264 0.0000e+00
      0.569      0.022     6.5677     60.431     46.249  33.794039     0.7813      9.046    75.3836 4.3439e+01     5.1982      0.559      0.811    11.5293 0.0000e+00
      0.569      0.028     6.5826     60.373     46.257  33.798040     0.8045      9.047    75.4362 4.3528e+01     5.3132      0.560      0.812    11.5318 0.0000e+00
      0.569      0.037     6.5900     60.336     46.257  33.796273     0.8050      9.049    75.5628 4.3464e+01     5.2905      0.556      0.806    11.5326 0.0000e+00
      0.576      0.043     6.5901     60.301     46.224  33.772673     0.7950      9.049    75.5376 4.2514e+01     5.1977      0.557      0.807    11.5327 0.0000e+00
      0.598      0.047     6.5812     60.228     46.213  33.766479     0.7916      9.048    75.3895 4.0790e+01     5.1468      0.583      0.846    11.5323 0.0000e+00
      0.625      0.047     6.5746     60.094     46.236  33.784831     0.7892      9.046    75.4061 3.9721e+01     5.1191      0.619      0.898    11.5304 0.0000e+00
      0.641      0.044     6.5716     59.939     46.261  33.804223     0.7992      9.045    75.5666 3.9433e+01     5.1359      0.633      0.917    11.5282 0.0000e+00
      0.646      0.040     6.5696     59.821     46.268  33.810613     0.7802      9.046    75.6097 3.9539e+01     5.1109      0.635      0.920    11.5281 0.0000e+00
      0.644      0.037     6.5630     59.760     46.251  33.798653     0.7338      9.046    75.5831 3.9752e+01     5.0563      0.633      0.918    11.5304 0.0000e+00
      0.644      0.037     6.5461     59.719     46.234  33.786504     0.7204      9.046    75.5890 3.9403e+01     5.0901      0.629      0.912    11.5327 0.0000e+00
      0.654      0.039     6.5259     59.644     46.240  33.790609     0.7349      9.047    75.5955 3.8314e+01     5.1441      0.636      0.922    11.5342 0.0000e+00
      0.675      0.042     6.5124     59.566     46.231  33.784842     0.7349      9.048    75.6610 3.7227e+01     5.0949      0.662      0.961    11.5352 0.0000e+00
      0.696      0.046     6.5065     59.556     46.225  33.780217     0.7114      9.048    75.6920 3.6719e+01     5.0423      0.688      0.997    11.5358 0.0000e+00
      0.707      0.050     6.5067     59.616     46.250  33.798144     0.7092      9.048    75.6274 3.6558e+01     5.1573      0.695      1.008    11.5355 0.0000e+00
      0.711      0.051     6.4961     59.702     46.268  33.811258     0.7336      9.049    75.5681 3.6433e+01     5.3235      0.697      1.010    11.5357 0.0000e+00
      0.716      0.049     6.4829     59.771     46.269  33.811882     0.7311      9.050    75.5775 3.5944e+01     5.3440      0.699      1.014    11.5363 0.0000e+00
      0.731      0.047     6.4835     59.839     46.261  33.805688     0.7215      9.050    75.6543 3.5031e+01     5.2678      0.713      1.035    11.5363 0.0000e+00
      0.753      0.046     6.4908     59.918     46.253  33.799816     0.7417      9.050    75.7225 3.4208e+01     5.2223      0.739      1.074    11.5357 0.0000e+00
      0.771      0.046     6.5037     59.960     46.258  33.804327     0.7675      9.050    75.7996 3.3813e+01     5.2381      0.760      1.102    11.5353 0.0000e+00
      0.780      0.047     6.5095     59.960     46.248  33.796777     0.7916      9.050    75.7270 3.3705e+01     5.3214      0.767      1.112    11.5354 0.0000e+00
      0.783      0.048     6.5148     59.946     46.214  33.771981     0.7837      9.051    75.5330 3.3592e+01     5.3079      0.767      1.113    11.5354 0.0000e+00
      0.788      0.053     6.5279     59.946     46.198  33.758296     0.7305      9.052    75.5184 3.3231e+01     5.1425      0.769      1.116    11.5357 0.0000e+00
      0.802      0.060     6.5318     59.969     46.203  33.758196     0.7050      9.053    75.5507 3.2493e+01     5.0295      0.784      1.137    11.5359 0.0000e+00
      0.823      0.067     6.5302     60.011     46.226  33.770781     0.7342      9.052    75.4935 3.1633e+01     5.0353      0.807      1.170    11.5362 0.0000e+00
      0.847      0.069     6.5278     60.066     46.246  33.783559     0.7677      9.052    75.4287 3.0793e+01     5.1097      0.830      1.203    11.5366 0.0000e+00
      0.872      0.064     6.5275     60.125     46.251  33.785804     0.7607      9.052    75.2832 3.0020e+01     5.1782      0.856      1.241    11.5343 0.0000e+00
      0.892      0.053     6.5313     60.169     46.270  33.797922     0.7236      9.052    75.1112 2.9611e+01     5.2481      0.879      1.275    11.5291 0.0000e+00
      0.903      0.039     6.5366     60.214     46.278  33.803184     0.7016      9.053    75.0697 2.9551e+01     5.2706      0.888      1.288    11.5250 0.0000e+00
      0.905      0.025     6.5429     60.271     46.255  33.785986     0.7120      9.053    75.0400 2.9614e+01     5.2122      0.888      1.288    11.5231 0.0000e+00
      0.905      0.014     6.5514     60.306     46.247  33.780314     0.7405      9.053    75.0093 2.9674e+01     5.1225      0.888      1.287    11.5215 0.0000e+00
      0.906      0.010     6.5552     60.335     46.271  33.798042     0.7467      9.053    75.0423 2.9719e+01     5.0055      0.888      1.288    11.5200 0.0000e+00
      0.907      0.015     6.5583     60.395     46.287  33.810003     0.7209      9.054    74.9234 2.9794e+01     4.9938      0.889      1.290    11.5193 0.0000e+00
      0.907      0.029     6.5682     60.451     46.272  33.798033     0.7029      9.055    74.6048 2.9801e+01     5.0160      0.890      1.290    11.5190 0.0000e+00
      0.911      0.045     6.5709     60.456     46.248  33.780210     0.7125      9.055    74.3729 2.9582e+01     5.0689      0.891      1.292    11.5188 0.0000e+00
      0.922      0.060     6.5709     60.422     46.255  33.784844     0.7373      9.055    74.2709 2.8992e+01     5.2226      0.901      1.306    11.5187 0.0000e+00
      0.944      0.071     6.5797     60.361     46.263  33.790612     0.7440      9.056    74.1465 2.8024e+01     5.2343      0.922      1.338    11.5187 0.0000e+00
      0.975      0.079     6.5894     60.271     46.257  33.786508     0.7271      9.057    74.0728 2.7034e+01     5.2116      0.957      1.388    11.5188 0.0000e+00
      1.003      0.082     6.5874     60.188     46.273  33.798667     0.7406      9.056    74.0675 2.6472e+01     5.2550      0.990      1.435    11.5181 0.0000e+00
      1.020      0.079     6.5838     60.152     46.290  33.810730     0.7745      9.055    73.9103 2.6191e+01     5.1444      1.002      1.453    11.5174 0.0000e+00
      1.033      0.070     6.5784     60.173     46.283  33.805473     0.7793      9.055    73.6354 2.5711e+01     4.9673      1.009      1.464    11.5176 0.0000e+00
      1.053      0.057     6.5658     60.238     46.273  33.798551     0.7730      9.055    73.4970 2.5088e+01     4.9233      1.031      1.496    11.5183 0.0000e+00
      1.073      0.044     6.5555     60.338     46.262  33.790486     0.7648      9.055    73.4410 2.4744e+01     4.9888      1.056      1.532    11.5185 0.0000e+00
      1.083      0.032     6.5509     60.454     46.236  33.771407     0.7643      9.056    73.3033 2.4681e+01     5.0753      1.065      1.545    11.5178 0.0000e+00
      1.087      0.021     6.5546     60.559     46.218  33.758198     0.7585      9.057    73.1220 2.4662e+01     5.0813      1.066      1.546    11.5176 0.0000e+00
      1.087      0.011     6.5611     60.645     46.218  33.757678     0.7276      9.058    72.9703 2.4708e+01     4.9943      1.067      1.547    11.5184 0.0000e+00
      1.086      0.009     6.5729     60.700     46.229  33.765108     0.7073      9.058    72.8458 2.4825e+01     4.9451      1.066      1.547    11.5184 0.0000e+00
      1.083      0.019     6.5871     60.713     46.256  33.784595     0.7211      9.058    72.8206 2.4898e+01     4.9987      1.062      1.541    11.5182 0.0000e+00
      1.081      0.039     6.5985     60.698     46.282  33.802957     0.7451      9.058    72.8381 2.4864e+01     5.1304      1.058      1.535    11.5178 0.0000e+00
      1.086      0.058     6.6084     60.671     46.274  33.796775     0.7387      9.057    72.7123 2.4534e+01     5.1710      1.059      1.536    11.5169 0.0000e+00
      1.107      0.072     6.6155     60.618     46.242  33.773288     0.7183      9.057    72.5045 2.3624e+01     5.1474      1.075      1.559    11.5167 0.0000e+00
      1.145      0.077     6.6161     60.532     46.241  33.772767     0.7241      9.057    72.3913 2.2497e+01     5.2894      1.123      1.628    11.5167 0.0000e+00
      1.183      0.075     6.6130     60.434     46.265  33.790473     0.7337      9.058    72.3759 2.1882e+01     5.4187      1.170      1.696    11.5159 0.0000e+00
      1.203      0.069     6.6116     60.374     46.274  33.797030     0.7345      9.058    72.3175 2.1777e+01     5.4129      1.184      1.718    11.5152 0.0000e+00
      1.207      0.059     6.6061     60.371     46.264  33.788600     0.7344      9.057    72.2880 2.1807e+01     5.3554      1.184      1.717    11.5152 0.0000e+00
      1.207      0.049     6.5962     60.397     46.214  33.751999     0.7233      9.057    72.2774 2.1764e+01     5.3052      1.181      1.713    11.5154 0.0000e+00
      1.214      0.045     6.5829     60.424     46.192  33.735164     0.7251      9.057    72.1033 2.1485e+01     5.3517      1.186      1.720    11.5155 0.0000e+00
      1.231      0.049     6.5751     60.444     46.248  33.775382     0.7318      9.058    71.9895 2.1071e+01     5.3374      1.207      1.752    11.5153 0.0000e+00
      1.250      0.058     6.5770     60.466     46.274  33.794148     0.7284      9.058    72.1058 2.0706e+01     5.2349      1.226      1.779    11.5150 0.0000e+00
      1.266      0.066     6.5806     60.483     46.244  33.771735     0.7337      9.058    72.2191 2.0425e+01     5.2052      1.241      1.801    11.5142 0.0000e+00
      1.280      0.069     6.5846     60.471     46.228  33.758163     0.7381      9.058    72.2414 2.0172e+01     5.2517      1.255      1.821    11.5134 0.0000e+00
      1.297      0.066     6.5857     60.436     46.228  33.756929     0.7411      9.058    72.2892 1.9742e+01     5.3197      1.267      1.839    11.5129 0.0000e+00
      1.319      0.061     6.5880     60.410     46.230  33.756826     0.7357      9.058    72.2812 1.9232e+01     5.3093      1.296      1.879    11.5128 0.0000e+00
      1.340      0.055     6.5921     60.410     46.231  33.756920     0.7145      9.058    72.1444 1.8959e+01     5.2285      1.319      1.912    11.5125 0.0000e+00
      1.352      0.045     6.5904     60.407     46.234  33.758064     0.7008      9.059    72.0112 1.8844e+01     5.1970      1.326      1.923    11.5107 0.0000e+00
      1.361      0.034     6.5859     60.393     46.254  33.770658     0.7119      9.059    71.9616 1.8763e+01     5.2691      1.334      1.935    11.5084 0.0000e+00
      1.367      0.023     6.5814     60.400     46.273  33.782298     0.7401      9.059    71.8881 1.8725e+01     5.3496      1.341      1.946    11.5069 0.0000e+00
      1.369      0.017     6.5839     60.415     46.261  33.771908     0.7340      9.058    71.7250 1.8746e+01     5.3159      1.345      1.951    11.5060 0.0000e+00
      1.369      0.017     6.5846     60.420     46.261  33.771919     0.6890      9.058    71.6246 1.8772e+01     5.2370      1.343      1.946    11.5049 0.0000e+00
      1.369      0.025     6.5801     60.412     46.275  33.782424     0.6620      9.059    71.6211 1.8715e+01     5.1817      1.341      1.945    11.5029 0.0000e+00
      1.373      0.035     6.5830     60.377     46.262  33.772042     0.6727      9.060    71.6831 1.8603e+01     5.1941      1.346      1.952    11.5005 0.0000e+00
      1.382      0.044     6.5860     60.317     46.266  33.773282     0.7024      9.060    71.7718 1.8320e+01     5.2497      1.351      1.959    11.4987 0.0000e+00
      1.399      0.050     6.5857     60.262     46.303  33.797407     0.6966      9.060    71.7466 1.7793e+01     5.2051      1.368      1.983    11.4984 0.0000e+00
      1.422      0.054     6.5859     60.210     46.323  33.809949     0.6601      9.060    71.6368 1.7344e+01     5.1675      1.399      2.030    11.4992 0.0000e+00
      1.439      0.058     6.5828     60.146     46.309  33.798032     0.6611      9.060    71.5623 1.7187e+01     5.2729      1.415      2.053    11.4988 0.0000e+00
      1.448      0.063     6.5736     60.078     46.288  33.780204     0.6923      9.059    71.5344 1.7102e+01     5.4551      1.419      2.059    11.4959 0.0000e+00
      1.456      0.067     6.5693     60.020     46.298  33.784724     0.7043      9.059    71.4717 1.6924e+01     5.5605      1.427      2.070    11.4931 0.0000e+00
      1.471      0.069     6.5648     59.996     46.308  33.789235     0.6895      9.060    71.4062 1.6591e+01     5.5230      1.439      2.086    11.4909 0.0000e+00
      1.494      0.069     6.5570     59.991     46.287  33.771298     0.6715      9.060    71.4306 1.6073e+01     5.5134      1.462      2.121    11.4888 0.0000e+00
      1.522      0.066     6.5505     59.984     46.272  33.758193     0.6705      9.060    71.4224 1.5603e+01     5.5808      1.495      2.169    11.4872 0.0000e+00
      1.546      0.059     6.5419     59.969     46.272  33.757673     0.6437      9.059    71.3927 1.5378e+01     5.5178      1.521      2.206    11.4840 0.0000e+00
      1.558      0.049     6.5419     59.940     46.283  33.765011     0.5802      9.059    71.4167 1.5292e+01     5.2987      1.530      2.219    11.4796 0.0000e+00
      1.562      0.039     6.5424     59.871     46.308  33.783457     0.5438      9.060    71.3681 1.5217e+01     5.1853      1.532      2.223    11.4767 0.0000e+00
      1.565      0.031     6.5419     59.757     46.317  33.790367     0.5452      9.060    71.2353 1.5119e+01     5.2753      1.534      2.225    11.4755 0.0000e+00
      1.570      0.030     6.5403     59.635     46.311  33.785124     0.5724      9.060    71.1023 1.5004e+01     5.4303      1.539      2.233    11.4747 0.0000e+00
      1.576      0.036     6.5382     59.499     46.309  33.783503     0.5890      9.060    70.9637 1.4864e+01     5.4869      1.546      2.241    11.4739 0.0000e+00
      1.586      0.046     6.5325     59.349     46.293  33.770772     0.5708      9.060    70.9358 1.4698e+01     5.4482      1.555      2.254    11.4744 0.0000e+00
      1.598      0.056     6.5155     59.197     46.279  33.758080     0.5607      9.059    71.1096 1.4488e+01     5.4398      1.566      2.272    11.4749 0.0000e+00
      1.615      0.063     6.5050     59.029     46.282  33.756926     0.5752      9.059    71.1731 1.4145e+01     5.5226      1.580      2.291    11.4739 0.0000e+00
      1.637      0.070     6.4899     58.872     46.286  33.756822     0.5964      9.059    71.0146 1.3760e+01     5.6632      1.605      2.328    11.4732 0.0000e+00
      1.658      0.073     6.4718     58.766     46.289  33.756818     0.5924      9.058    70.9144 1.3490e+01     5.6718      1.629      2.363    11.4728 0.0000e+00
      1.675      0.071     6.4583     58.705     46.291  33.756869     0.5599      9.058    70.9083 1.3255e+01     5.5583      1.643      2.382    11.4700 0.0000e+00
      1.694      0.064     6.4386     58.678     46.292  33.757441     0.5534      9.060    70.8538 1.2945e+01     5.5545      1.658      2.405    11.4658 0.0000e+00
      1.715      0.056     6.4196     58.679     46.301  33.763733     0.5879      9.061    70.7723 1.2687e+01     5.6254      1.684      2.442    11.4622 0.0000e+00
      1.730      0.050     6.4093     58.659     46.309  33.769501     0.6113      9.061    70.6966 1.2622e+01     5.6641      1.702      2.468    11.4598 0.0000e+00
      1.735      0.048     6.4038     58.589     46.302  33.763734     0.5951      9.059    70.5401 1.2605e+01     5.6471      1.701      2.468    11.4584 0.0000e+00
      1.739      0.050     6.3998     58.492     46.293  33.757446     0.5913      9.059    70.3436 1.2462e+01     5.5903      1.701      2.467    11.4576 0.0000e+00
      1.750      0.053     6.4029     58.381     46.293  33.756926     0.6318      9.058    70.2131 1.2248e+01     5.5922      1.716      2.489    11.4579 0.0000e+00
      1.766      0.057     6.4026     58.256     46.294  33.757446     0.6609      9.057    70.0807 1.2012e+01     5.5679      1.731      2.511    11.4584 0.0000e+00
      1.786      0.058     6.3924     58.124     46.303  33.763734     0.6595      9.057    69.8622 1.1691e+01     5.5014      1.749      2.538    11.4583 0.0000e+00
      1.810      0.058     6.3822     58.004     46.311  33.769502     0.6565      9.057    69.6360 1.1408e+01     5.5057      1.779      2.579    11.4579 0.0000e+00
      1.826      0.057     6.3699     57.914     46.304  33.763740     0.6583      9.058    69.4966 1.1286e+01     5.5517      1.795      2.604    11.4574 0.0000e+00
      1.834      0.057     6.3564     57.861     46.296  33.757509     0.6651      9.058    69.3815 1.1228e+01     5.6129      1.798      2.609    11.4569 0.0000e+00
      1.840      0.057     6.3411     57.820     46.296  33.757613     0.6556      9.057    69.2764 1.1104e+01     5.5962      1.801      2.614    11.4566 0.0000e+00
      1.852      0.060     6.3273     57.784     46.307  33.764998     0.6349      9.057    69.1721 1.0860e+01     5.5209      1.814      2.630    11.4564 0.0000e+00
      1.872      0.065     6.3166     57.783     46.335  33.783345     0.6307      9.057    68.9814 1.0585e+01     5.4885      1.837      2.664    11.4562 0.0000e+00
      1.893      0.070     6.3128     57.823     46.345  33.789113     0.6300      9.057    68.8631 1.0316e+01     5.5459      1.856      2.691    11.4562 0.0000e+00
      1.915      0.070     6.3088     57.835     46.323  33.771291     0.6354      9.057    68.8601 1.0035e+01     5.6680      1.878      2.722    11.4556 0.0000e+00
      1.937      0.062     6.3032     57.800     46.307  33.758187     0.6376      9.056    68.7729 9.8275e+00     5.6331      1.902      2.759    11.4547 0.0000e+00
      1.953      0.051     6.3023     57.796     46.307  33.757563     0.6228      9.054    68.6690 9.6961e+00     5.4989      1.917      2.781    11.4532 0.0000e+00
      1.965      0.040     6.3103     57.821     46.315  33.763745     0.6149      9.054    68.6362 9.6106e+00     5.4458      1.929      2.797    11.4507 0.0000e+00
      1.971      0.034     6.3161     57.865     46.323  33.769489     0.6252      9.054    68.6354 9.6132e+00     5.4696      1.935      2.807    11.4486 0.0000e+00
      1.971      0.035     6.3030     57.936     46.315  33.763564     0.6467      9.054    68.6590 9.6351e+00     5.5483      1.932      2.803    11.4476 0.0000e+00
      1.973      0.044     6.3072     58.037     46.304  33.755555     0.6510      9.054    68.5785 9.5816e+00     5.5424      1.933      2.803    11.4471 0.0000e+00
      1.982      0.057     6.3095     58.215     46.278  33.736108     0.6267      9.054    68.3498 9.4426e+00     5.5012      1.942      2.816    11.4470 0.0000e+00
      1.999      0.071     6.3122     58.417     46.256  33.718753     0.6197      9.054    68.1308 9.1797e+00     5.5631      1.956      2.837    11.4471 0.0000e+00
      2.028      0.086     6.3236     58.568     46.282  33.736052     0.6419      9.054    67.9944 8.8320e+00     5.6074      1.987      2.882    11.4470 0.0000e+00
      2.059      0.099     6.3278     58.690     46.309  33.754928     0.6532      9.054    67.9056 8.5813e+00     5.5591      2.025      2.937    11.4468 0.0000e+00
      2.082      0.108     6.3521     58.803     46.314  33.756644     0.6479      9.054    67.8311 8.4061e+00     5.4907      2.041      2.961    11.4466 0.0000e+00
      2.104      0.109     6.3788     58.894     46.317  33.756806     0.6366      9.054    67.7829 8.1338e+00     5.5321      2.058      2.985    11.4455 0.0000e+00
      2.135      0.101     6.3922     58.944     46.319  33.756881     0.6325      9.053    67.6671 7.7797e+00     5.6505      2.093      3.035    11.4438 0.0000e+00
      2.172      0.089     6.4053     58.921     46.322  33.757542     0.6401      9.052    67.4629 7.4707e+00     5.6237      2.133      3.092    11.4422 0.0000e+00
      2.202      0.074     6.4193     58.870     46.332  33.764807     0.6449      9.052    67.2919 7.2980e+00     5.4467      2.165      3.141    11.4405 0.0000e+00
      2.217      0.059     6.4289     58.868     46.354  33.781273     0.6413      9.052    67.4073 7.2525e+00     5.2867      2.179      3.160    11.4386 0.0000e+00
      2.220      0.045     6.4377     58.890     46.333  33.766291     0.6295      9.052    68.1701 7.2517e+00     5.2603      2.177      3.158    11.4366 0.0000e+00
      2.220      0.037     6.4338     58.900     46.257  33.710558     0.6271      9.052    69.3738 7.2349e+00     5.3668      2.176      3.156    11.4352 0.0000e+00
      2.223      0.039     6.4218     58.911     46.213  33.678422     0.6290      9.053    70.5182 7.1813e+00     5.4470      2.178      3.159    11.4351 0.0000e+00
      2.232      0.050     6.4251     58.917     46.238  33.694959     0.6195      9.053    71.5099 7.0609e+00     5.4449      2.184      3.169    11.4353 0.0000e+00
      2.249      0.065     6.4301     58.932     46.274  33.720162     0.6120      9.053    72.4164 6.8807e+00     5.4429      2.204      3.197    11.4356 0.0000e+00
      2.270      0.080     6.4279     58.984     46.289  33.729365     0.6128      9.052    73.2187 6.7014e+00     5.4924      2.227      3.230    11.4363 0.0000e+00
      2.294      0.090     6.4310     59.036     46.309  33.742786     0.6377      9.051    73.8965 6.5136e+00     5.5987      2.248      3.260    11.4360 0.0000e+00
      2.319      0.092     6.4317     59.060     46.329  33.755545     0.6722      9.051    74.5033 6.2841e+00     5.6004      2.273      3.297    11.4344 0.0000e+00
      2.348      0.088     6.4304     59.065     46.332  33.756740     0.6804      9.053    75.1348 6.0601e+00     5.4798      2.303      3.341    11.4325 0.0000e+00
      2.376      0.081     6.4395     59.057     46.333  33.757237     0.6948      9.054    75.7668 5.9193e+00     5.4728      2.334      3.385    11.4308 0.0000e+00
      2.396      0.073     6.4468     59.032     46.340  33.761549     0.7208      9.054    76.2950 5.8552e+00     5.5839      2.353      3.412    11.4290 0.0000e+00
      2.408      0.067     6.4482     58.986     46.319  33.745424     0.7212      9.054    76.7885 5.7835e+00     5.6274      2.361      3.423    11.4273 0.0000e+00
      2.419      0.066     6.4493     58.925     46.247  33.689166     0.6995      9.054    77.3463 5.6997e+00     5.5539      2.372      3.440    11.4262 0.0000e+00
      2.430      0.070     6.4483     58.873     46.207  33.652344     0.6747      9.054    77.8763 5.6227e+00     5.4812      2.382      3.456    11.4257 0.0000e+00
      2.446      0.077     6.4459     58.823     46.262  33.680870     0.6710      9.054    78.2927 5.4886e+00     5.5342      2.394      3.473    11.4255 0.0000e+00
      2.471      0.084     6.4412     58.757     46.328  33.716827     0.6962      9.054    78.7670 5.3044e+00     5.6487      2.422      3.513    11.4250 0.0000e+00
      2.499      0.086     6.4331     58.702     46.325  33.706416     0.7210      9.054    79.3090 5.1360e+00     5.6695      2.452      3.556    11.4228 0.0000e+00
      2.526      0.083     6.4289     58.668     46.299  33.681876     0.7125      9.055    79.6841 4.9762e+00     5.5815      2.477      3.593    11.4145 0.0000e+00
      2.550      0.075     6.4280     58.638     46.290  33.673883     0.6850      9.055    80.0326 4.8375e+00     5.4722      2.504      3.631    11.3998 0.0000e+00
      2.567      0.065     6.4199     58.626     46.290  33.673222     0.6808      9.054    80.4247 4.7648e+00     5.4757      2.522      3.657    11.3852 0.0000e+00
      2.577      0.054     6.4150     58.638     46.290  33.673884     0.6863      9.054    80.8112 4.7280e+00     5.5545      2.529      3.666    11.3753 0.0000e+00
      2.586      0.042     6.4145     58.652     46.300  33.681886     0.6843      9.054    81.2645 4.6566e+00     5.5372      2.534      3.674    11.3704 0.0000e+00
      2.599      0.033     6.4094     58.682     46.333  33.706530     0.6826      9.054    81.6045 4.5531e+00     5.4710      2.547      3.696    11.3691 0.0000e+00
      2.610      0.029     6.4075     58.736     46.348  33.718066     0.6647      9.054    81.8236 4.4950e+00     5.5060      2.563      3.718    11.3698 0.0000e+00
      2.614      0.032     6.4112     58.781     46.314  33.694486     0.6507      9.055    82.1066 4.5072e+00     5.6185      2.566      3.721    11.3704 0.0000e+00
      2.614      0.041     6.4112     58.801     46.287  33.675208     0.6477      9.055    82.4457 4.5226e+00     5.6355      2.561      3.715    11.3708 0.0000e+00
      2.618      0.056     6.4130     58.783     46.289  33.675312     0.6280      9.054    82.7401 4.4716e+00     5.5409      2.562      3.715    11.3718 0.0000e+00
      2.632      0.077     6.4217     58.743     46.320  33.695734     0.6214      9.054    82.9985 4.3652e+00     5.4652      2.578      3.739    11.3728 0.0000e+00
      2.656      0.098     6.4258     58.720     46.373  33.731796     0.6588      9.054    83.3338 4.2401e+00     5.4725      2.603      3.776    11.3739 0.0000e+00
      2.686      0.112     6.4294     58.699     46.375  33.730651     0.7055      9.053    83.6960 4.0655e+00     5.5608      2.627      3.811    11.3737 0.0000e+00
      2.729      0.115     6.4277     58.682     46.312  33.681892     0.7122      9.053    83.7640 3.8458e+00     5.5760      2.672      3.876    11.3720 0.0000e+00
      2.774      0.105     6.4195     58.683     46.271  33.649817     0.6979      9.052    83.2110 3.6868e+00     5.4856      2.728      3.957    11.3699 0.0000e+00
      2.804      0.090     6.4206     58.681     46.288  33.660052     0.7155      9.052    82.3433 3.6119e+00     5.4924      2.756      3.997    11.3675 0.0000e+00
      2.817      0.078     6.4181     58.679     46.315  33.678747     0.7504      9.052    81.7046 3.5611e+00     5.5909      2.764      4.009    11.3640 0.0000e+00
      2.822      0.073     6.4144     58.679     46.328  33.685530     0.7695      9.052    81.2538 3.5541e+00     5.6519      2.770      4.017    11.3611 0.0000e+00
      2.824      0.076     6.4182     58.690     46.326  33.678609     0.7639      9.052    80.8502 3.5523e+00     5.6145      2.767      4.014    11.3590 0.0000e+00
      2.836      0.082     6.4164     58.706     46.309  33.658509     0.7413      9.051    80.5244 3.4471e+00     5.5485      2.770      4.019    11.3568 0.0000e+00
      2.870      0.085     6.4170     58.681     46.283  33.632822     0.7368      9.052    80.2398 3.2506e+00     5.5714      2.807      4.072    11.3556 0.0000e+00
      2.917      0.082     6.4171     58.635     46.272  33.621797     0.7520      9.052    79.9896 3.0896e+00     5.5498      2.870      4.162    11.3544 0.0000e+00
      2.949      0.073     6.4174     58.616     46.313  33.652098     0.7502      9.053    79.6504 3.0418e+00     5.4578      2.902      4.209    11.3483 0.0000e+00
      2.958      0.060     6.4256     58.622     46.352  33.681966     0.7144      9.054    79.2365 3.0459e+00     5.4148      2.904      4.212    11.3378 0.0000e+00
      2.957      0.047     6.4223     58.639     46.327  33.665701     0.6857      9.054    78.9432 3.0489e+00     5.4399      2.901      4.206    11.3295 0.0000e+00
      2.956      0.043     6.4140     58.664     46.299  33.645790     0.7030      9.054    78.7717 3.0319e+00     5.5574      2.895      4.199    11.3261 0.0000e+00
      2.962      0.057     6.4135     58.691     46.281  33.631551     0.7315      9.054    78.6245 2.9858e+00     5.6057      2.901      4.208    11.3278 0.0000e+00
      2.977      0.077     6.4141     58.713     46.269  33.620423     0.7305      9.053    78.3683 2.9262e+00     5.5114      2.919      4.234    11.3311 0.0000e+00
      2.999      0.093     6.4154     58.724     46.298  33.638132     0.7160      9.052    78.0833 2.8138e+00     5.4424      2.934      4.257    11.3329 0.0000e+00
      3.037      0.098     6.4184     58.710     46.325  33.655330     0.7230      9.052    77.8448 2.6470e+00     5.4887      2.971      4.310    11.3330 0.0000e+00
      3.082      0.090     6.4223     58.663     46.303  33.638027     0.7486      9.052    77.6367 2.5255e+00     5.5922      3.031      4.397    11.3315 0.0000e+00
      3.112      0.074     6.4246     58.603     46.277  33.619260     0.7421      9.052    77.5452 2.4810e+00     5.6007      3.060      4.438    11.3285 0.0000e+00
      3.121      0.054     6.4274     58.563     46.276  33.618750     0.6942      9.052    77.4269 2.4690e+00     5.5230      3.063      4.441    11.3246 0.0000e+00
      3.121      0.036     6.4269     58.561     46.294  33.631865     0.6776      9.052    77.1533 2.4794e+00     5.5406      3.062      4.442    11.3218 0.0000e+00
      3.117      0.025     6.4208     58.584     46.320  33.650936     0.7078      9.052    76.9041 2.4874e+00     5.6437      3.055      4.431    11.3208 0.0000e+00
      3.117      0.023     6.4131     58.602     46.331  33.659001     0.7348      9.053    76.7364 2.4626e+00     5.6418      3.053      4.427    11.3207 0.0000e+00
      3.127      0.026     6.4072     58.606     46.341  33.665928     0.7378      9.054    76.5888 2.4223e+00     5.5514      3.065      4.445    11.3212 0.0000e+00
      3.141      0.028     6.4081     58.608     46.350  33.671241     0.7190      9.054    76.4108 2.3789e+00     5.5074      3.080      4.467    11.3219 0.0000e+00
      3.155      0.029     6.4117     58.604     46.335  33.659801     0.7156      9.053    76.1319 2.3457e+00     5.5534      3.095      4.489    11.3223 0.0000e+00
      3.164      0.030     6.4145     58.578     46.327  33.654497     0.7467      9.053    75.8849 2.3471e+00     5.6300      3.106      4.506    11.3220 0.0000e+00
      3.164      0.033     6.4140     58.546     46.350  33.670556     0.7705      9.053    75.6612 2.3617e+00     5.6475      3.103      4.501    11.3210 0.0000e+00
      3.163      0.039     6.4140     58.525     46.342  33.663635     0.7542      9.054    75.4062 2.3601e+00     5.5949      3.098      4.493    11.3200 0.0000e+00
      3.169      0.044     6.4158     58.519     46.306  33.634258     0.7160      9.055    75.2967 2.3212e+00     5.5400      3.104      4.502    11.3199 0.0000e+00
      3.188      0.049     6.4109     58.542     46.306  33.632584     0.6995      9.055    75.2832 2.2377e+00     5.5307      3.122      4.528    11.3205 0.0000e+00
      3.213      0.055     6.4070     58.569     46.322  33.643390     0.7218      9.055    75.2430 2.1658e+00     5.4817      3.152      4.571    11.3204 0.0000e+00
      3.233      0.064     6.4055     58.579     46.316  33.638029     0.7686      9.056    75.0690 2.1467e+00     5.4606      3.178      4.608    11.3187 0.0000e+00
      3.242      0.075     6.4035     58.604     46.309  33.631203     0.7908      9.057    74.7282 2.1412e+00     5.5150      3.180      4.611    11.3154 0.0000e+00
      3.248      0.089     6.4080     58.661     46.303  33.624291     0.7663      9.057    74.4779 2.1012e+00     5.5243      3.180      4.612    11.3123 0.0000e+00
      3.266      0.101     6.4132     58.716     46.301  33.617900     0.7460      9.057    74.3653 2.0312e+00     5.6077      3.198      4.638    11.3117 0.0000e+00
      3.298      0.110     6.4116     58.747     46.308  33.617370     0.7371      9.056    74.3138 1.9380e+00     5.7375      3.227      4.681    11.3117 0.0000e+00
      3.343      0.112     6.4136     58.764     46.315  33.617880     0.7168      9.056    74.2849 1.8201e+00     5.7268      3.276      4.752    11.3096 0.0000e+00
      3.390      0.105     6.4228     58.763     46.327  33.624064     0.7080      9.055    74.1878 1.7318e+00     5.6838      3.334      4.836    11.3066 0.0000e+00
      3.419      0.085     6.4305     58.741     46.335  33.628688     0.7233      9.055    74.0003 1.7026e+00     5.6613      3.362      4.876    11.3018 0.0000e+00
      3.429      0.059     6.4331     58.716     46.309  33.610337     0.7430      9.056    73.7393 1.6893e+00     5.6250      3.362      4.876    11.2948 0.0000e+00
      3.435      0.037     6.4368     58.679     46.283  33.592523     0.7375      9.056    73.5268 1.6737e+00     5.5868      3.368      4.886    11.2896 0.0000e+00
      3.436      0.028     6.4378     58.633     46.296  33.603633     0.7152      9.056    73.4096 1.6795e+00     5.5069      3.375      4.894    11.2872 0.0000e+00
      3.431      0.032     6.4332     58.604     46.316  33.617777     0.7318      9.057    73.3551 1.6925e+00     5.4785      3.364      4.879    11.2856 0.0000e+00
      3.430      0.039     6.4322     58.595     46.345  33.636649     0.7893      9.057    73.2979 1.6715e+00     5.5511      3.355      4.867    11.2855 0.0000e+00
      3.447      0.047     6.4278     58.611     46.354  33.641471     0.8267      9.057    73.1488 1.6210e+00     5.5994      3.372      4.892    11.2874 0.0000e+00
      3.478      0.056     6.4203     58.642     46.316  33.612633     0.8179      9.057    73.0143 1.5782e+00     5.5849      3.414      4.952    11.2896 0.0000e+00
      3.500      0.063     6.4181     58.660     46.308  33.605193     0.7749      9.057    72.9623 1.5677e+00     5.5806      3.441      4.991    11.2898 0.0000e+00
      3.507      0.063     6.4169     58.677     46.326  33.614959     0.7394      9.058    72.8646 1.5546e+00     5.6148      3.436      4.984    11.2870 0.0000e+00
      3.516      0.053     6.4187     58.702     46.315  33.603822     0.7381      9.058    72.6922 1.5075e+00     5.5891      3.442      4.992    11.2841 0.0000e+00
      3.536      0.043     6.4252     58.715     46.307  33.597419     0.7506      9.057    72.5136 1.4642e+00     5.5775      3.470      5.031    11.2838 0.0000e+00
      3.552      0.043     6.4254     58.723     46.312  33.600993     0.7491      9.057    72.3400 1.4582e+00     5.6113      3.489      5.061    11.2826 0.0000e+00
      3.556      0.050     6.4271     58.754     46.290  33.583586     0.7372      9.058    72.1413 1.4770e+00     5.5873      3.489      5.061    11.2785 0.0000e+00
      3.556      0.056     6.4326     58.782     46.288  33.577291     0.7563      9.058    72.0047 1.4740e+00     5.5943      3.482      5.051    11.2742 0.0000e+00
      3.568      0.059     6.4336     58.766     46.313  33.588306     0.7889      9.058    71.9786 1.4258e+00     5.5598      3.491      5.064    11.2733 0.0000e+00
      3.594      0.061     6.4321     58.720     46.325  33.589874     0.7894      9.057    71.9113 1.3641e+00     5.4776      3.525      5.112    11.2744 0.0000e+00
      3.622      0.065     6.4367     58.665     46.341  33.596249     0.7962      9.057    71.7943 1.3272e+00     5.4539      3.558      5.160    11.2739 0.0000e+00
      3.641      0.066     6.4444     58.624     46.354  33.601931     0.8457      9.058    71.6817 1.3176e+00     5.4787      3.572      5.181    11.2690 0.0000e+00
      3.651      0.065     6.4413     58.599     46.348  33.595125     0.8977      9.058    71.5824 1.3066e+00     5.5718      3.580      5.193    11.2592 0.0000e+00
      3.661      0.064     6.4374     58.562     46.325  33.577398     0.9253      9.058    71.5407 1.2833e+00     5.5890      3.589      5.207    11.2507 0.0000e+00
      3.673      0.064     6.4316     58.522     46.326  33.577927     0.9131      9.058    71.4353 1.2537e+00     5.4820      3.599      5.220    11.2452 0.0000e+00
      3.691      0.066     6.4260     58.487     46.360  33.601527     0.8750      9.059    71.2547 1.2218e+00     5.4738      3.617      5.247    11.2414 0.0000e+00
      3.715      0.066     6.4272     58.468     46.370  33.608957     0.8643      9.059    71.0781 1.1936e+00     5.5931      3.644      5.285    11.2395 0.0000e+00
      3.737      0.065     6.4208     58.473     46.364  33.604324     0.8754      9.059    70.8479 1.1626e+00     5.6601      3.666      5.317    11.2384 0.0000e+00
      3.756      0.063     6.4175     58.472     46.370  33.608952     0.8428      9.060    70.6226 1.1332e+00     5.6008      3.685      5.347    11.2376 0.0000e+00
      3.767      0.059     6.4131     58.472     46.360  33.601465     0.7608      9.060    70.4194 1.1282e+00     5.4907      3.697      5.363    11.2373 0.0000e+00
      3.772      0.052     6.4092     58.508     46.328  33.577241     0.7323      9.060    70.1973 1.1259e+00     5.5237      3.695      5.358    11.2366 0.0000e+00
      3.785      0.046     6.4133     58.566     46.319  33.569847     0.7569      9.060    70.0014 1.0894e+00     5.6590      3.705      5.374    11.2365 0.0000e+00
      3.806      0.042     6.4121     58.605     46.327  33.575505     0.7915      9.060    69.8576 1.0544e+00     5.6585      3.736      5.419    11.2374 0.0000e+00
      3.820      0.044     6.4094     58.623     46.336  33.582209     0.8345      9.060    69.6634 1.0554e+00     5.5512      3.751      5.441    11.2372 0.0000e+00
      3.823      0.050     6.4146     58.630     46.344  33.587456     0.8362      9.060    69.3739 1.0583e+00     5.4886      3.748      5.436    11.2357 0.0000e+00
      3.827      0.056     6.4239     58.617     46.330  33.575504     0.8363      9.060    69.0253 1.0452e+00     5.5172      3.750      5.437    11.2347 0.0000e+00
      3.838      0.059     6.4274     58.596     46.318  33.564585     0.8530      9.060    68.6325 1.0238e+00     5.5208      3.760      5.454    11.2351 0.0000e+00
      3.859      0.060     6.4287     58.584     46.345  33.582323     0.8376      9.061    67.8931 9.8496e-01     5.4303      3.781      5.485    11.2356 0.0000e+00
      3.887      0.059     6.4303     58.559     46.371  33.599636     0.8086      9.061    66.2803 9.3767e-01     5.3785      3.814      5.532    11.2350 0.0000e+00
      3.911      0.052     6.4292     58.504     46.350  33.583572     0.7779      9.061    64.3618 9.1575e-01     5.4416      3.841      5.571    11.2330 0.0000e+00
      3.922      0.040     6.4251     58.451     46.342  33.578428     0.7657      9.061    63.0230 9.1599e-01     5.5439      3.849      5.583    11.2300 0.0000e+00
      3.923      0.028     6.4260     58.428     46.372  33.600883     0.7607      9.061    62.2242 9.1554e-01     5.5560      3.847      5.580    11.2272 0.0000e+00
      3.922      0.019     6.4254     58.441     46.372  33.601299     0.7338      9.061    61.7589 9.1381e-01     5.4853      3.845      5.577    11.2253 0.0000e+00
      3.922      0.020     6.4166     58.489     46.347  33.583456     0.7156      9.060    61.4410 9.0701e-01     5.4413      3.845      5.577    11.2249 0.0000e+00
      3.925      0.030     6.4100     58.546     46.337  33.575485     0.7068      9.060    61.0470 9.0086e-01     5.5022      3.848      5.582    11.2256 0.0000e+00
      3.931      0.045     6.4072     58.572     46.329  33.568366     0.7269      9.060    60.6090 8.9506e-01     5.6751      3.853      5.589    11.2265 0.0000e+00
      3.943      0.055     6.4082     58.576     46.322  33.560822     0.7684      9.060    60.2751 8.7446e-01     5.7896      3.862      5.602    11.2269 0.0000e+00
      3.965      0.058     6.4147     58.604     46.308  33.547707     0.7748      9.061    59.9354 8.4441e-01     5.7598      3.884      5.633    11.2271 0.0000e+00
      3.993      0.056     6.4228     58.643     46.294  33.536691     0.7797      9.061    59.5139 8.2247e-01     5.7581      3.921      5.687    11.2277 0.0000e+00
      4.013      0.052     6.4261     58.658     46.319  33.554514     0.8189      9.062    59.1361 8.1518e-01     5.8031      3.942      5.717    11.2269 0.0000e+00
      4.019      0.045     6.4232     58.672     46.344  33.572866     0.8661      9.062    58.8094 8.1383e-01     5.7584      3.942      5.716    11.2229 0.0000e+00
      4.020      0.035     6.4277     58.694     46.338  33.568253     0.8762      9.061    58.4026 8.1289e-01     5.6606      3.941      5.715    11.2195 0.0000e+00
      4.024      0.027     6.4359     58.705     46.330  33.562174     0.8494      9.060    57.9167 8.0423e-01     5.5429      3.944      5.720    11.2182 0.0000e+00
      4.034      0.022     6.4340     58.704     46.331  33.562807     0.8670      9.061    57.4952 7.8406e-01     5.4969      3.955      5.737    11.2182 0.0000e+00
      4.044      0.027     6.4357     58.691     46.348  33.575912     0.9394      9.061    57.0919 7.6153e-01     5.5145      3.969      5.756    11.2190 0.0000e+00
      4.049      0.042     6.4397     58.676     46.372  33.593734     0.9836      9.061    56.7399 7.4719e-01     5.4825      3.972      5.761    11.2189 0.0000e+00
      4.050      0.065     6.4403     58.667     46.366  33.587956     0.9772      9.061    56.5089 7.5689e-01     5.4859      3.973      5.762    11.2179 0.0000e+00
      4.054      0.088     6.4406     58.659     46.346  33.569492     0.9283      9.060    56.1918 7.6010e-01     5.5895      3.971      5.760    11.2183 0.0000e+00
      4.077      0.110     6.4386     58.648     46.342  33.560812     0.8495      9.059    55.8315 7.1700e-01     5.7788      3.982      5.776    11.2189 0.0000e+00
      4.128      0.130     6.4365     58.632     46.331  33.546451     0.7823      9.059    55.5933 6.6192e-01     5.8269      4.046      5.869    11.2190 0.0000e+00
      4.185      0.144     6.4356     58.602     46.309  33.522738     0.7399      9.060    55.3764 6.2789e-01     5.6932      4.117      5.972    11.2196 0.0000e+00
      4.220      0.144     6.4360     58.569     46.334  33.527872     0.7118      9.061    55.1021 6.0130e-01     5.6317      4.139      6.004    11.2150 0.0000e+00
      4.250      0.128     6.4355     58.537     46.377  33.545071     0.7010      9.062    54.7721 5.6863e-01     5.6976      4.161      6.034    11.2059 0.0000e+00
      4.287      0.102     6.4356     58.485     46.382  33.540334     0.7090      9.061    54.3980 5.5023e-01     5.8075      4.209      6.105    11.2012 0.0000e+00
      4.317      0.079     6.4327     58.417     46.376  33.534028     0.7155      9.061    54.0206 5.5817e-01     5.7986      4.241      6.152    11.1943 0.0000e+00
      4.329      0.064     6.4304     58.354     46.371  33.532268     0.6969      9.061    53.7364 5.5444e-01     5.6926      4.246      6.159    11.1775 0.0000e+00
      4.332      0.054     6.4318     58.300     46.347  33.519060     0.6843      9.061    53.5426 5.3687e-01     5.6528      4.247      6.160    11.1611 0.0000e+00
      4.337      0.046     6.4261     58.249     46.319  33.501228     0.7045      9.061    53.3123 5.3108e-01     5.6583      4.250      6.165    11.1520 0.0000e+00
      4.348      0.045     6.4186     58.226     46.326  33.506995     0.7164      9.061    53.0170 5.1892e-01     5.6570      4.263      6.183    11.1498 0.0000e+00
      4.364      0.049     6.4103     58.208     46.353  33.525348     0.7029      9.061    52.7255 4.9353e-01     5.6027      4.282      6.210    11.1538 0.0000e+00
      4.379      0.052     6.4054     58.128     46.367  33.532790     0.7087      9.061    52.5413 4.7866e-01     5.5141      4.296      6.230    11.1587 0.0000e+00
      4.393      0.053     6.3972     58.047     46.371  33.533526     0.7611      9.061    52.3383 4.7932e-01     5.5428      4.306      6.245    11.1615 0.0000e+00
      4.409      0.057     6.3935     58.037     46.375  33.534255     0.8119      9.062    51.9913 4.7904e-01     5.6764      4.324      6.271    11.1625 0.0000e+00
      4.421      0.064     6.3998     58.043     46.386  33.541601     0.8243      9.063    51.7872 4.7364e-01     5.7284      4.340      6.294    11.1608 0.0000e+00
      4.430      0.071     6.3857     58.008     46.410  33.558905     0.7860      9.063    51.6774 4.6114e-01     5.6943      4.340      6.295    11.1576 0.0000e+00
      4.446      0.074     6.3722     57.943     46.401  33.553132     0.7154      9.062    51.4384 4.3761e-01     5.7077      4.352      6.313    11.1547 0.0000e+00
      4.476      0.076     6.3766     57.896     46.375  33.535252     0.6946      9.062    51.1348 4.1254e-01     5.7882      4.389      6.365    11.1529 0.0000e+00
      4.507      0.076     6.3794     57.891     46.373  33.533051     0.7174      9.063    50.8459 3.9836e-01     5.8479      4.426      6.419    11.1521 0.0000e+00
      4.525      0.074     6.3752     57.897     46.366  33.526507     0.7084      9.063    50.6124 3.9474e-01     5.8140      4.442      6.443    11.1519 0.0000e+00
      4.535      0.066     6.3651     57.888     46.356  33.519572     0.6600      9.063    50.3767 3.8946e-01     5.7207      4.445      6.446    11.1534 0.0000e+00
      4.548      0.055     6.3578     57.865     46.346  33.512651     0.6151      9.063    50.1470 3.8017e-01     5.7105      4.458      6.465    11.1547 0.0000e+00
      4.566      0.050     6.3606     57.838     46.338  33.506267     0.6149      9.063    49.8995 3.7229e-01     5.8266      4.481      6.499    11.1530 0.0000e+00
      4.580      0.053     6.3621     57.821     46.339  33.505832     0.6414      9.064    49.6213 3.6446e-01     5.8952      4.495      6.520    11.1513 0.0000e+00
      4.585      0.058     6.3607     57.812     46.344  33.507392     0.6193      9.064    49.3642 3.6051e-01     5.8225      4.495      6.519    11.1515 0.0000e+00
      4.594      0.060     6.3580     57.814     46.372  33.525119     0.5473      9.064    49.1152 3.6222e-01     5.6990      4.499      6.524    11.1520 0.0000e+00
      4.614      0.060     6.3540     57.821     46.382  33.529838     0.5038      9.063    48.8476 3.4735e-01     5.6657      4.522      6.559    11.1512 0.0000e+00
      4.640      0.061     6.3531     57.812     46.344  33.501000     0.5078      9.063    48.5368 3.2392e-01     5.7622      4.555      6.605    11.1497 0.0000e+00
      4.660      0.065     6.3521     57.819     46.335  33.493664     0.5212      9.063    48.2829 3.1857e-01     5.8058      4.575      6.636    11.1483 0.0000e+00
      4.670      0.069     6.3519     57.872     46.352  33.504585     0.5160      9.063    48.1874 3.2323e-01     5.7158      4.580      6.643    11.1454 0.0000e+00
      4.677      0.071     6.3560     57.955     46.358  33.506145     0.5197      9.063    48.1564 3.2641e-01     5.6983      4.583      6.647    11.1423 0.0000e+00
      4.692      0.070     6.3530     58.054     46.373  33.512528     0.5412      9.063    48.0806 3.1708e-01     5.7992      4.598      6.668    11.1405 0.0000e+00
      4.719      0.069     6.3516     58.133     46.386  33.518304     0.5440      9.063    47.8733 2.9288e-01     5.8769      4.626      6.710    11.1398 0.0000e+00
      4.748      0.070     6.3600     58.161     46.379  33.512537     0.5277      9.062    47.5423 2.6570e-01     5.8517      4.660      6.758    11.1388 0.0000e+00
      4.768      0.072     6.3686     58.181     46.370  33.506250     0.5109      9.062    47.2619 2.5853e-01     5.7337      4.681      6.789    11.1368 0.0000e+00
      4.778      0.073     6.3820     58.209     46.371  33.505730     0.5151      9.061    47.0641 2.7511e-01     5.7143      4.686      6.797    11.1313 0.0000e+00
      4.785      0.074     6.3946     58.188     46.378  33.506250     0.5289      9.061    46.8716 2.7333e-01     5.8223      4.688      6.798    11.1258 0.0000e+00
      4.802      0.082     6.3942     58.108     46.398  33.512529     0.5361      9.062    46.6552 2.4656e-01     5.9453      4.706      6.824    11.1257 0.0000e+00
      4.829      0.095     6.3938     57.985     46.419  33.518194     0.5355      9.062    46.3402 2.2874e-01     6.0061      4.738      6.872    11.1274 0.0000e+00
      4.855      0.109     6.4028     57.841     46.422  33.511283     0.5140      9.062    46.0745 2.2406e-01     5.9436      4.761      6.906    11.1268 0.0000e+00
      4.884      0.116     6.3997     57.700     46.403  33.492413     0.5086      9.062    45.9374 2.1238e-01     6.0771      4.784      6.940    11.1213 0.0000e+00
      4.922      0.115     6.3918     57.555     46.391  33.480357     0.5295      9.063    45.7150 1.9306e-01     6.3910      4.827      7.000    11.1121 0.0000e+00
      4.961      0.108     6.3798     57.428     46.410  33.492403     0.5243      9.063    45.4501 1.8282e-01     6.4595      4.870      7.063    11.1007 0.0000e+00
      4.988      0.096     6.3629     57.361     46.436  33.511170     0.5043      9.062    45.2304 1.7376e-01     6.3929      4.896      7.101    11.0902 0.0000e+00
      5.007      0.079     6.3506     57.343     46.444  33.516926     0.5046      9.062    44.9509 1.6388e-01     6.4051      4.908      7.120    11.0844 0.0000e+00
      5.024      0.060     6.3336     57.349     46.419  33.498566     0.5189      9.062    44.6534 1.6501e-01     6.6067      4.927      7.146    11.0817 0.0000e+00
      5.039      0.046     6.3170     57.368     46.393  33.479505     0.5278      9.062    44.2144 1.6630e-01     6.9181      4.947      7.173    11.0805 0.0000e+00
      5.045      0.042     6.3108     57.367     46.389  33.476792     0.5199      9.062    43.5134 1.5930e-01     7.1982      4.950      7.179    11.0801 0.0000e+00
      5.046      0.046     6.3105     57.343     46.374  33.465768     0.5326      9.061    43.0605 1.5356e-01     9.3446      4.947      7.175    11.0799 0.0000e+00
      5.050      0.051     6.3103     57.295     46.384  33.473095     0.7401      9.059    42.9548 1.4811e-01    32.8695      4.948      7.177    11.0799 0.0000e+00
      5.065      0.054     6.3148     57.181     46.424  33.501942     1.1139      9.059    42.8376 1.4394e-01    75.8848      4.962      7.196    11.0799 0.0000e+00
      5.092      0.055     6.3151     57.028     46.418  33.497328     1.3146      9.060    42.6763 1.4482e-01    99.4060      4.995      7.243    11.0796 0.0000e+00
      5.118      0.051     6.3100     56.893     46.395  33.480754     1.3190      9.061    42.3815 1.4330e-01   102.7757      5.025      7.288    11.0794 0.0000e+00
      5.131      0.042     6.3100     56.801     46.410  33.491883     1.3007      9.061    42.0265 1.4003e-01   117.6179      5.035      7.303    11.0795 0.0000e+00
      5.134      0.029     6.2949     56.782     46.428  33.504996     1.2846      9.061    41.7388 1.3393e-01   144.6495      5.035      7.303    11.0798 0.0000e+00
      5.134      0.016     6.2743     56.797     46.438  33.512419     1.2814      9.060    41.4842 1.3069e-01   159.4797      5.035      7.303    11.0799 0.0000e+00
      5.134      0.008     6.2613     56.804     46.445  33.518188     1.2790      9.060    41.3574 1.3374e-01   161.6237      5.035      7.302    11.0798 0.0000e+00
      5.135      0.004     6.2464     56.821     46.435  33.511300     1.2478      9.060    41.3236 1.3776e-01   170.8794      5.034      7.303    11.0801 0.0000e+00
      5.136      0.004     6.2479     56.835     46.409  33.492580     1.2200      9.060    41.1621 1.4509e-01   187.7338      5.037      7.306    11.0802 0.0000e+00
      5.138      0.005     6.2525     56.834     46.395  33.482180     1.2265      9.060    40.7817 1.5023e-01   196.7630      5.039      7.308    11.0803 0.0000e+00
      5.140      0.006     6.2497     56.814     46.436  33.512445     1.2173      9.060    40.3374 1.4946e-01   195.2666      5.040      7.310    11.0809 0.0000e+00
      5.141      0.006     6.2537     56.760     46.476  33.541287     0.9927      9.058    40.0063 1.4245e-01   169.5044      5.041      7.312    11.0812 0.0000e+00
      5.143      0.006     6.2554     56.693     46.437  33.513688     0.5750      9.058    39.7895 1.3510e-01   122.1708      5.043      7.313    11.0813 0.0000e+00
      5.145      0.006     6.2545     56.651     46.412  33.495970     0.3530      9.059    39.6093 1.3842e-01    96.4101      5.045      7.317    11.0814 0.0000e+00
      5.147      0.005     6.2546     56.652     46.441  33.517396     0.3567      9.060    39.3753 1.4432e-01    93.9728      5.047      7.320    11.0815 0.0000e+00
      5.148      0.005     6.2470     56.682     46.442  33.518966     0.3531      9.060    38.9403 1.4466e-01    91.7443      5.048      7.322    11.0820 0.0000e+00
      5.149      0.004     6.2379     56.716     46.436  33.514958     0.2263      9.059    38.4798 1.4267e-01    69.5007      5.050      7.324    11.0823 0.0000e+00
      5.150      0.003     6.2324     56.776     46.459  33.532373     0.0224      9.058    38.2803 1.4153e-01    28.8561      5.050      7.325    11.0828 0.0000e+00
      5.150      0.002     6.2323     56.857     46.468  33.539199    -0.0648      9.058    38.0776 1.4413e-01     6.7763      5.050      7.325    11.0835 0.0000e+00
      5.150      0.002     6.2386     56.921     46.458  33.534051    -0.0454      9.058    37.7500 1.4569e-01     4.8278      5.050      7.325    11.0843 0.0000e+00
      5.150      0.002     6.2398     56.983     46.453  33.533584    -0.0439      9.058    37.5028 1.4518e-01     4.1704      5.051      7.326    11.0849 0.0000e+00
      5.151      0.002     6.2458     57.019     46.450  33.533545    -0.0541      9.058    37.4112 1.4467e-01     3.6781      5.052      7.327    11.0850 0.0000e+00
      5.152 -9.990e-29     6.2591 -9.990e-29 -9.990e-29 -9.990e-29 -9.990e-29 -9.990e-29 -9.990e-29 1.4084e-01 -9.990e-29      5.053      7.328    11.0856 0.0000e+00
      5.153 -9.990e-29     6.2625 -9.990e-29 -9.990e-29 -9.990e-29 -9.990e-29 -9.990e-29 -9.990e-29 1.4077e-01 -9.990e-29      5.053      7.329    11.0865 0.0000e+00
      5.153 -9.990e-29     6.2694 -9.990e-29 -9.990e-29 -9.990e-29 -9.990e-29 -9.990e-29 -9.990e-29 1.4325e-01 -9.990e-29      5.053      7.329    11.0917 0.0000e+00
      5.153 -9.990e-29     6.2780 -9.990e-29 -9.990e-29 -9.990e-29 -9.990e-29 -9.990e-29 -9.990e-29 1.4290e-01 -9.990e-29      5.054      7.331    11.0967 0.0000e+00
