* Sea-Bird SBE19plus  Data File:
* FileName = C:\R\Reservoirs\Data\DataNotYetUploadedToEDI\Raw_CTD\RawDownloads\102725_fcr50_S7809_0004.hex
* Software version 2.8.0.119
* Temperature SN = 7809
* Conductivity SN = 7809
* System UpLoad Time = Nov 13 2025 15:23:27
* <ApplicationData>
* <Seaterm232>
* <SoftwareVersion>2.8.0.119</SoftwareVersion>
* <BuildDate>07-Nov-2018</BuildDate>
* </Seaterm232>
* </ApplicationData>
* <InstrumentState>
* <HardwareData DeviceType='SBE19plus' SerialNumber='01907809'>
*
*    <Manufacturer>Sea-Bird Electronics, Inc.</Manufacturer>
*
*    <FirmwareVersion>3.1.8</FirmwareVersion>
*
*    <FirmwareDate>Mar  9 2016 16:22:29</FirmwareDate>
*
*    <CommandSetVersion>1.4</CommandSetVersion>
*
*    <PCBAssembly PCBSerialNum='120721' AssemblyNum='41054J'/>
*
*    <PCBAssembly PCBSerialNum='120715' AssemblyNum='41967A'/>
*
*    <PCBAssembly PCBSerialNum='116699' AssemblyNum='41606'/>
*
*    <PCBAssembly PCBSerialNum='120719' AssemblyNum='41059D'/>
*
*    <MfgDate>28-Apr-2017</MfgDate>
*
*    <InternalSensors>
*
*       <Sensor id='Main Temperature'>
*
*          <type>temperature0</type>
*
*          <SerialNumber>01907809</SerialNumber>
*
*       </Sensor>
*
*       <Sensor id='Main Conductivity'>
*
*          <type>conductivity-0</type>
*
*          <SerialNumber>01907809</SerialNumber>
*
*       </Sensor>
*
*       <Sensor id='Main Pressure'>
*
*          <type>strain-0</type>
*
*          <SerialNumber>10586018</SerialNumber>
*
*       </Sensor>
*
*    </InternalSensors>
*
*    <ExternalSensors>
*
*       <Sensor id='volt 0'>
*
*          <type>pH</type>
*
*          <SerialNumber>27-0363</SerialNumber>
*
*       </Sensor>
*
*       <Sensor id='volt 1'>
*
*          <type>ORP</type>
*
*          <SerialNumber>27-0363</SerialNumber>
*
*       </Sensor>
*
*       <Sensor id='volt 2'>
*
*          <type>OXY</type>
*
*          <SerialNumber>43-0434</SerialNumber>
*
*       </Sensor>
*
*       <Sensor id='volt 3'>
*
*          <type>PAR</type>
*
*          <SerialNumber>1122</SerialNumber>
*
*       </Sensor>
*
*       <Sensor id='volt 4'>
*
*          <type>ECO AFL/FL</type>
*
*          <SerialNumber>FLNTURT-2496</SerialNumber>
*
*       </Sensor>
*
*       <Sensor id='volt 5'>
*
*          <type>ECO-NTU</type>
*
*          <SerialNumber>FLNTURT-2496</SerialNumber>
*
*       </Sensor>
*
*       <Sensor id='serial'>
*
*          <type>not assigned</type>
*
*          <SerialNumber>not assigned</SerialNumber>
*
*       </Sensor>
*
*    </ExternalSensors>
*
* </HardwareData>
* <StatusData DeviceType='SBE19plus' SerialNumber='01907809'>
*
*    <DateTime>2025-11-13T16:20:09</DateTime>
*
*    <LoggingState>not logging</LoggingState>
*
*    <EventSummary numEvents='0'/>
*
*    <Power>
*
*       <vMain>11.8</vMain>
*
*       <vLith>8.3</vLith>
*
*       <iMain>63.0</iMain>
*
*       <iPump>198.1</iPump>
*
*       <iExt01>22.0</iExt01>
*
*       <iExt2345>41.3</iExt2345>
*
*    </Power>
*
*    <MemorySummary>
*
*       <Bytes>229931</Bytes>
*
*       <Samples>9997</Samples>
*
*       <SamplesFree>2850791</SamplesFree>
*
*       <SampleLength>23</SampleLength>
*
*       <Profiles>7</Profiles>
*
*    </MemorySummary>
*
* </StatusData>
* <ConfigurationData DeviceType='SBE19plus' SerialNumber='01907809'>
*
*    <ProfileMode>
*
*       <ScansToAverage>1</ScansToAverage>
*
*       <MinimumCondFreq>0</MinimumCondFreq>
*
*       <PumpDelay>45</PumpDelay>
*
*       <AutoRun>no</AutoRun>
*
*       <IgnoreSwitch>no</IgnoreSwitch>
*
*    </ProfileMode>
*
*    <Battery>
*
*       <Type>alkaline</Type>
*
*       <CutOff>7.5</CutOff>
*
*    </Battery>
*
*    <DataChannels>
*
*       <ExtVolt0>yes</ExtVolt0>
*
*       <ExtVolt1>yes</ExtVolt1>
*
*       <ExtVolt2>yes</ExtVolt2>
*
*       <ExtVolt3>yes</ExtVolt3>
*
*       <ExtVolt4>yes</ExtVolt4>
*
*       <ExtVolt5>yes</ExtVolt5>
*
*       <SBE38>no</SBE38>
*
*       <WETLABS>no</WETLABS>
*
*       <OPTODE>no</OPTODE>
*
*       <SBE63>no</SBE63>
*
*       <SeaFET>no</SeaFET>
*
*       <GTD>no</GTD>
*
*    </DataChannels>
*
*    <EchoCharacters>yes</EchoCharacters>
*
*    <OutputExecutedTag>yes</OutputExecutedTag>
*
*    <OutputFormat>raw HEX</OutputFormat>
*
* </ConfigurationData>
* <CalibrationCoefficients DeviceType='SBE19plus' SerialNumber='01907809'>
*
*    <Calibration format='TEMP1' id='Main Temperature'>
*
*       <SerialNum>01907809</SerialNum>
*
*       <CalDate>31-Jan-23</CalDate>
*
*       <TA0>1.218232e-03</TA0>
*
*       <TA1>2.815090e-04</TA1>
*
*       <TA2>-1.578887e-06</TA2>
*
*       <TA3>1.972343e-07</TA3>
*
*       <TOFFSET>0.000000e+00</TOFFSET>
*
*    </Calibration>
*
*    <Calibration format='WBCOND0' id='Main Conductivity'>
*
*       <SerialNum>01907809</SerialNum>
*
*       <CalDate>31-Jan-23</CalDate>
*
*       <G>-1.005652e+00</G>
*
*       <H>1.267963e-01</H>
*
*       <I>-1.561708e-04</I>
*
*       <J>2.645944e-05</J>
*
*       <CPCOR>-9.570000e-08</CPCOR>
*
*       <CTCOR>3.250000e-06</CTCOR>
*
*       <CSLOPE>1.000000e+00</CSLOPE>
*
*    </Calibration>
*
*    <Calibration format='STRAIN0' id='Main Pressure'>
*
*       <SerialNum>10586018</SerialNum>
*
*       <CalDate>20-Jan-23</CalDate>
*
*       <PA0>4.416439e-02</PA0>
*
*       <PA1>4.850502e-04</PA1>
*
*       <PA2>-3.090426e-12</PA2>
*
*       <PTCA0>5.254757e+05</PTCA0>
*
*       <PTCA1>1.050255e+01</PTCA1>
*
*       <PTCA2>-2.922435e-01</PTCA2>
*
*       <PTCB0>2.516687e+01</PTCB0>
*
*       <PTCB1>3.750000e-04</PTCB1>
*
*       <PTCB2>0.000000e+00</PTCB2>
*
*       <PTEMPA0>-5.470820e+01</PTEMPA0>
*
*       <PTEMPA1>5.485421e+01</PTEMPA1>
*
*       <PTEMPA2>-3.446578e-01</PTEMPA2>
*
*       <POFFSET>8.500000e-01</POFFSET>
*
*       <PRANGE>1.600000e+02</PRANGE>
*
*    </Calibration>
*
*    <Calibration format='VOLT0' id='Volt 0'>
*
*       <OFFSET>-4.920000e-02</OFFSET>
*
*       <SLOPE>1.248122e+00</SLOPE>
*
*    </Calibration>
*
*    <Calibration format='VOLT0' id='Volt 1'>
*
*       <OFFSET>-4.784000e-02</OFFSET>
*
*       <SLOPE>1.248871e+00</SLOPE>
*
*    </Calibration>
*
*    <Calibration format='VOLT0' id='Volt 2'>
*
*       <OFFSET>-4.864632e-02</OFFSET>
*
*       <SLOPE>1.248714e+00</SLOPE>
*
*    </Calibration>
*
*    <Calibration format='VOLT0' id='Volt 3'>
*
*       <OFFSET>-4.743790e-02</OFFSET>
*
*       <SLOPE>1.248571e+00</SLOPE>
*
*    </Calibration>
*
*    <Calibration format='VOLT0' id='Volt 4'>
*
*       <OFFSET>-4.671263e-02</OFFSET>
*
*       <SLOPE>1.248951e+00</SLOPE>
*
*    </Calibration>
*
*    <Calibration format='VOLT0' id='Volt 5'>
*
*       <OFFSET>-4.871053e-02</OFFSET>
*
*       <SLOPE>1.249136e+00</SLOPE>
*
*    </Calibration>
*
*    <Calibration format='FREQ0' id='external frequency channel'>
*
*       <EXTFREQSF>1.000014e+00</EXTFREQSF>
*
*    </Calibration>
*
* </CalibrationCoefficients>
* <EventCounters DeviceType='SBE19plus' SerialNumber='01907809'>
*
*    <EventSummary numEvents='0'/>
*
* </EventCounters></InstrumentState>
* <Headers>
*
* cast   4 10 Nov 2025 14:54:07 samples 6092 to 6687, avg = 1, stop = mag switch
*
# nquan = 15
# nvalues = 531                         
# units = specified
# name 0 = depFM: Depth [fresh water, m]
# name 1 = dz/dtM: Descent Rate [m/s]
# name 2 = sbeox0Mg/L: Oxygen, SBE 43 [mg/l]
# name 3 = sbeox0PS: Oxygen, SBE 43 [% saturation]
# name 4 = specc: Specific Conductance [uS/cm]
# name 5 = c0uS/cm: Conductivity [uS/cm]
# name 6 = flECO-AFL: Fluorescence, WET Labs ECO-AFL/FL [mg/m^3]
# name 7 = ph: pH
# name 8 = orp: Oxidation Reduction Potential [mV]
# name 9 = par/sat/log: PAR/Logarithmic, Satlantic
# name 10 = turbWETntu0: Turbidity, WET Labs ECO [NTU]
# name 11 = prdM: Pressure, Strain Gauge [db]
# name 12 = prdE: Pressure, Strain Gauge [psi]
# name 13 = tv290C: Temperature [ITS-90, deg C]
# name 14 = flag:  0.000e+00
# span 0 =     -0.722,      1.990       
# span 1 =     -0.226,      0.257       
# span 2 =     5.1173,    11.7837       
# span 3 =     46.304,     99.589       
# span 4 =      1.076,     48.746       
# span 5 =   0.648005,  33.379246       
# span 6 =    -0.0951,    20.4289       
# span 7 =     -2.727,      8.608       
# span 8 = -1240.7455,   147.5848       
# span 9 = 3.8135e+00, 1.6624e+02       
# span 10 =     1.3114,    92.1120      
# span 11 =     -0.708,      1.953      
# span 12 =     -1.027,      2.832      
# span 13 =     5.0471,    10.9283      
# span 14 = 0.0000e+00, 0.0000e+00      
# interval = seconds: 0.25
# start_time = Nov 10 2025 14:54:07 [Instrument's time stamp, header]
# bad_flag = -9.990e-29
# <Sensors count="9" >
#   <sensor Channel="1" >
#     <!-- Count, Temperature -->
#     <TemperatureSensor SensorID="58" >
#       <SerialNumber>7809</SerialNumber>
#       <CalibrationDate>31-Jan-23</CalibrationDate>
#       <A0>1.21823180e-003</A0>
#       <A1>2.81508993e-004</A1>
#       <A2>-1.57888696e-006</A2>
#       <A3>1.97234302e-007</A3>
#       <Slope>1.00000000</Slope>
#       <Offset>0.0000</Offset>
#     </TemperatureSensor>
#   </sensor>
#   <sensor Channel="2" >
#     <!-- Frequency 0, Conductivity -->
#     <ConductivitySensor SensorID="3" >
#       <SerialNumber>7809</SerialNumber>
#       <CalibrationDate>31-Jan-23</CalibrationDate>
#       <UseG_J>1</UseG_J>
#       <!-- Cell const and series R are applicable only for wide range sensors. -->
#       <SeriesR>0.0000</SeriesR>
#       <CellConst>2000.0000</CellConst>
#       <ConductivityType>0</ConductivityType>
#       <Coefficients equation="0" >
#         <A>0.00000000e+000</A>
#         <B>0.00000000e+000</B>
#         <C>0.00000000e+000</C>
#         <D>0.00000000e+000</D>
#         <M>0.0</M>
#         <CPcor>-9.57000000e-008</CPcor>
#       </Coefficients>
#       <Coefficients equation="1" >
#         <G>-1.00565232e+000</G>
#         <H>1.26796307e-001</H>
#         <I>-1.56170788e-004</I>
#         <J>2.64594368e-005</J>
#         <CPcor>-9.57000000e-008</CPcor>
#         <CTcor>3.2500e-006</CTcor>
#         <!-- WBOTC not applicable unless ConductivityType = 1. -->
#         <WBOTC>0.00000000e+000</WBOTC>
#       </Coefficients>
#       <Slope>1.00000000</Slope>
#       <Offset>0.00000</Offset>
#     </ConductivitySensor>
#   </sensor>
#   <sensor Channel="3" >
#     <!-- Count, Pressure, Strain Gauge -->
#     <PressureSensor SensorID="46" >
#       <SerialNumber>7809</SerialNumber>
#       <CalibrationDate>20-Jan-23</CalibrationDate>
#       <PA0>4.41643944e-002</PA0>
#       <PA1>4.85050239e-004</PA1>
#       <PA2>-3.09042623e-012</PA2>
#       <PTEMPA0>-5.47081996e+001</PTEMPA0>
#       <PTEMPA1>5.48542136e+001</PTEMPA1>
#       <PTEMPA2>-3.44657813e-001</PTEMPA2>
#       <PTCA0>5.25475731e+005</PTCA0>
#       <PTCA1>1.05025484e+001</PTCA1>
#       <PTCA2>-2.92243463e-001</PTCA2>
#       <PTCB0>2.51668750e+001</PTCB0>
#       <PTCB1>3.75000000e-004</PTCB1>
#       <PTCB2>0.00000000e+000</PTCB2>
#       <Offset>0.000000</Offset>
#     </PressureSensor>
#   </sensor>
#   <sensor Channel="4" >
#     <!-- A/D voltage 0, Oxygen, SBE 43 -->
#     <OxygenSensor SensorID="38" >
#       <SerialNumber>0434</SerialNumber>
#       <CalibrationDate>18-Feb-23</CalibrationDate>
#       <Use2007Equation>1</Use2007Equation>
#       <CalibrationCoefficients equation="0" >
#         <!-- Coefficients for Owens-Millard equation. -->
#         <Boc>0.0000</Boc>
#         <Soc>0.0000e+000</Soc>
#         <offset>0.0000</offset>
#         <Pcor>0.00e+000</Pcor>
#         <Tcor>0.0000</Tcor>
#         <Tau>0.0</Tau>
#       </CalibrationCoefficients>
#       <CalibrationCoefficients equation="1" >
#         <!-- Coefficients for Sea-Bird equation - SBE calibration in 2007 and later. -->
#         <Soc>5.1878e-001</Soc>
#         <offset>-0.5046</offset>
#         <A>-4.2788e-003</A>
#         <B> 1.5372e-004</B>
#         <C>-2.1853e-006</C>
#         <D0> 2.5826e+000</D0>
#         <D1> 1.92634e-004</D1>
#         <D2>-4.64803e-002</D2>
#         <E> 3.6000e-002</E>
#         <Tau20> 0.9900</Tau20>
#         <H1>-3.3000e-002</H1>
#         <H2> 5.0000e+003</H2>
#         <H3> 1.4500e+003</H3>
#       </CalibrationCoefficients>
#     </OxygenSensor>
#   </sensor>
#   <sensor Channel="5" >
#     <!-- A/D voltage 1, PAR/Logarithmic, Satlantic -->
#     <PARLog_SatlanticSensor SensorID="76" >
#       <SerialNumber>1122</SerialNumber>
#       <CalibrationDate>08-Sep-2021</CalibrationDate>
#       <a0>9.6751e-001</a0>
#       <a1>8.0992e-001</a1>
#       <Im>1.3589e+000</Im>
#       <Multiplier>1.0000e+000</Multiplier>
#     </PARLog_SatlanticSensor>
#   </sensor>
#   <sensor Channel="6" >
#     <!-- A/D voltage 2, pH -->
#     <pH_Sensor SensorID="43" >
#       <SerialNumber>0363</SerialNumber>
#       <CalibrationDate>28-Feb-23</CalibrationDate>
#       <Slope>4.7364</Slope>
#       <Offset>2.5433</Offset>
#     </pH_Sensor>
#   </sensor>
#   <sensor Channel="7" >
#     <!-- A/D voltage 3, Oxidation Reduction Potential -->
#     <OxidationReductionPotentialSensor SensorID="41" >
#       <SerialNumber>0363</SerialNumber>
#       <CalibrationDate>28-Feb-23</CalibrationDate>
#       <B>2.499480</B>
#       <M>-0.496195</M>
#       <Offset>0.0</Offset>
#     </OxidationReductionPotentialSensor>
#   </sensor>
#   <sensor Channel="8" >
#     <!-- A/D voltage 4, Fluorometer, WET Labs ECO-AFL/FL -->
#     <FluoroWetlabECO_AFL_FL_Sensor SensorID="20" >
#       <SerialNumber>FLNTURT-2496</SerialNumber>
#       <CalibrationDate>02-Sep-2021</CalibrationDate>
#       <ScaleFactor>4.80000000e+001</ScaleFactor>
#       <!-- Dark output -->
#       <Vblank>0.0550</Vblank>
#     </FluoroWetlabECO_AFL_FL_Sensor>
#   </sensor>
#   <sensor Channel="9" >
#     <!-- A/D voltage 5, Turbidity Meter, WET Labs, ECO-NTU -->
#     <TurbidityMeter SensorID="67" >
#       <SerialNumber>FLNTURT--2496</SerialNumber>
#       <CalibrationDate>02-Sep-2021</CalibrationDate>
#       <ScaleFactor>197.000000</ScaleFactor>
#       <!-- Dark output -->
#       <DarkVoltage>0.070000</DarkVoltage>
#     </TurbidityMeter>
#   </sensor>
# </Sensors>
# datcnv_date = Dec 17 2025 16:26:27, 7.26.7.129 [datcnv_vars = 14]
# datcnv_in = C:\R\Reservoirs\Data\DataNotYetUploadedToEDI\Raw_CTD\RawDownloads\111025_fcr10_S7809004.hex C:\R\Reservoirs\Data\DataNotYetUploadedToEDI\Raw_CTD\RawDownloads\SBE19plusV2_7809_start20230701.xmlcon
# datcnv_skipover = 0
# datcnv_ox_hysteresis_correction = yes
# datcnv_ox_tau_correction = yes
# filter_date = Dec 17 2025 16:27:09, 7.26.7.129
# filter_in = C:\R\Reservoirs\Data\DataNotYetUploadedToEDI\Raw_CTD\RawDownloads\111025_fcr10_S7809004.cnv
# filter_low_pass_tc_A = 0.030
# filter_low_pass_tc_B = 0.150
# filter_low_pass_A_vars = sbeox0Mg/L prdM prdE tv290C
# filter_low_pass_B_vars = depFM dz/dtM sbeox0PS specc c0uS/cm flECO-AFL ph orp par/sat/log turbWETntu0
# alignctd_date = Dec 17 2025 16:27:40, 7.26.7.129
# alignctd_in = C:\R\Reservoirs\Data\DataNotYetUploadedToEDI\Raw_CTD\RawDownloads\111025_fcr10_S7809004.cnv
# alignctd_adv = dz/dtM 1.000, sbeox0PS 1.000, specc 1.000, c0uS/cm 1.000, flECO-AFL 1.000, ph 1.000, orp 1.000, turbWETntu0 1.000                                                                                                   
# file_type = ascii
*END*
     -0.722 1.7205e-33    11.7067     92.179      1.191   0.716183     0.0027      7.022 -1041.2155 1.0712e+02     8.2770     -0.708     -1.026     5.1311 0.0000e+00
     -0.722 1.8926e-32    11.7143     92.210      1.172   0.704751    -0.0164      6.833  -583.7802 1.0406e+02     8.1163     -0.708     -1.027     5.1148 0.0000e+00
     -0.721 2.0818e-31    11.7305     92.240      1.171   0.703599    -0.0380      6.256  -319.2452 1.0588e+02     8.0234     -0.708     -1.026     5.0956 0.0000e+00
     -0.721 2.2900e-30    11.7423     92.276      1.169   0.702259    -0.0425      5.756  -661.9074 1.0814e+02     7.7339     -0.708     -1.026     5.0835 0.0000e+00
     -0.721 2.5190e-29    11.7497     92.305      1.146   0.688544    -0.0540      5.499 -1092.7533 1.1169e+02     7.1789     -0.707     -1.026     5.0722 0.0000e+00
     -0.721 2.7709e-28    11.7573     92.315      1.106   0.664463    -0.0859      5.289 -1227.2914 1.1984e+02     6.9824     -0.708     -1.026     5.0607 0.0000e+00
     -0.721 3.0480e-27    11.7631     92.323      1.106   0.664463    -0.0867      5.055 -1239.5196 1.2889e+02     7.1008     -0.707     -1.026     5.0513 0.0000e+00
     -0.721 3.3528e-26    11.7698     92.335      1.146   0.688544    -0.0726      4.745 -1240.6037 1.3374e+02     6.6284     -0.707     -1.026     5.0471 0.0000e+00
     -0.721 3.6881e-25    11.7751     92.342      1.168   0.702249    -0.0891      3.712 -1240.3990 1.3000e+02     5.6429     -0.707     -1.026     5.0474 0.0000e+00
     -0.721 4.0569e-24    11.7736     92.348      1.170   0.703494    -0.0868      1.410 -1237.0437 1.2277e+02     5.1602     -0.707     -1.026     5.0493 0.0000e+00
     -0.721 4.4626e-23    11.7737     92.316      1.170   0.703598    -0.0537     -0.024 -1200.0354 1.1979e+02     5.1302     -0.707     -1.026     5.0515 0.0000e+00
     -0.721 4.9089e-22    11.7763     92.254      1.170   0.703505    -0.0385      0.250  -792.9349 1.2174e+02     4.5283     -0.707     -1.026     5.0538 0.0000e+00
     -0.721 5.3998e-21    11.7743     92.251      1.168   0.702363    -0.0527      0.201  -419.7594 1.2722e+02     3.3144     -0.707     -1.026     5.0558 0.0000e+00
     -0.721 5.9398e-20    11.7774     92.303      1.147   0.689789    -0.0758      0.632  -792.9349 1.3389e+02     2.6488     -0.707     -1.026     5.0572 0.0000e+00
     -0.721 6.5337e-19    11.7758     92.361      1.128   0.678169    -0.0763      2.167 -1200.0355 1.3622e+02     2.6631     -0.707     -1.026     5.0582 0.0000e+00
     -0.721 7.1871e-18    11.7572     92.387      1.145   0.688543    -0.0673      3.379 -1237.0446 1.2464e+02     2.4283     -0.707     -1.026     5.0591 0.0000e+00
     -0.721 7.9058e-17    11.7601     92.361      1.145   0.688543    -0.0908      3.972 -1240.4090 9.9423e+01     1.8942     -0.707     -1.025     5.0603 0.0000e+00
     -0.721 8.6964e-16    11.7692     92.336      1.127   0.678159    -0.0951      3.411 -1240.7149 7.7585e+01     1.6702     -0.707     -1.025     5.0620 0.0000e+00
     -0.721 9.5660e-15    11.7753     92.327      1.147   0.689675    -0.0527      1.018 -1240.7427 6.8756e+01     1.7004     -0.707     -1.026     5.0637 0.0000e+00
     -0.721 1.0523e-13    11.7837     92.322      1.166   0.701105    -0.0443     -1.584 -1240.7453 6.5504e+01     1.6451     -0.707     -1.025     5.0657 0.0000e+00
     -0.721 1.1575e-12    11.7720     92.328      1.147   0.689675    -0.0684     -2.623 -1240.7455 6.0937e+01     1.6162     -0.707     -1.026     5.0679 0.0000e+00
     -0.720 1.2732e-11    11.7694     92.340      1.127   0.678159    -0.0602     -2.717 -1240.7455 5.5317e+01     1.7265     -0.706     -1.025     5.0703 0.0000e+00
     -0.720 1.4006e-10    11.7692     92.354      1.144   0.688553    -0.0536     -2.726 -1240.7455 4.9940e+01     1.7488     -0.706     -1.024     5.0729 0.0000e+00
     -0.720 1.5406e-09    11.7656     92.364      1.144   0.688658    -0.0879     -2.727 -1240.7455 4.5393e+01     1.6132     -0.706     -1.024     5.0753 0.0000e+00
     -0.720 1.6947e-08    11.7675     92.366      1.129   0.679425    -0.0934     -2.727 -1240.7455 4.1833e+01     1.5558     -0.706     -1.025     5.0774 0.0000e+00
     -0.720 1.8642e-07    11.7674     92.371      1.169   0.703609    -0.0539     -2.727 -1240.7455 3.9493e+01     1.5677     -0.706     -1.023     5.0794 0.0000e+00
     -0.720 1.8642e-07    11.7697     92.381      1.209   0.727689    -0.0344     -2.726 -1240.7455 3.9676e+01     1.5169     -0.706     -1.024     5.0812 0.0000e+00
     -0.720 1.6947e-08    11.7704     92.370      1.192   0.717200    -0.0479     -2.726 -1240.7455 4.2374e+01     1.4209     -0.707     -1.025     5.0829 0.0000e+00
     -0.720 1.5406e-09    11.7696     92.335      1.169   0.703484    -0.0761     -2.726 -1240.7455 4.6526e+01     1.4313     -0.706     -1.024     5.0847 0.0000e+00
     -0.720 1.4006e-10    11.7688     92.315      1.144   0.688532    -0.0756     -2.726 -1240.7455 5.3075e+01     1.6087     -0.706     -1.024     5.0862 0.0000e+00
     -0.720 1.2734e-11    11.7721     92.325      1.102   0.663092    -0.0582     -2.726 -1240.7455 6.1225e+01     1.6866     -0.706     -1.024     5.0876 0.0000e+00
     -0.720 1.1695e-12    11.7708     92.330      1.078   0.649263    -0.0751     -2.726 -1240.7455 6.5741e+01     1.5533     -0.706     -1.025     5.0890 0.0000e+00
     -0.720 2.3730e-13    11.7632     92.323      1.076   0.648015    -0.0876     -2.726 -1240.7455 6.4241e+01     1.4998     -0.706     -1.025     5.0901 0.0000e+00
     -0.720 1.4624e-12    11.7585     92.314      1.076   0.648005    -0.0683     -2.726 -1240.7455 6.2459e+01     1.5859     -0.706     -1.025     5.0915 0.0000e+00
     -0.720 1.5982e-11    11.7628     92.301      1.078   0.649137    -0.0662     -2.726 -1240.7455 6.7726e+01     1.5697     -0.706     -1.025     5.0941 0.0000e+00
     -0.721 1.7580e-10    11.7626     92.304      1.099   0.661710    -0.0877     -2.726 -1240.7455 7.9062e+01     1.4413     -0.707     -1.025     5.0966 0.0000e+00
     -0.721 1.9338e-09    11.7591     92.330      1.118   0.673331    -0.0782     -2.726 -1240.7455 9.0356e+01     1.3662     -0.707     -1.026     5.0986 0.0000e+00
     -0.721 2.1272e-08    11.7597     92.356      1.101   0.662967    -0.0682     -2.726 -1240.7453 9.7058e+01     1.3442     -0.707     -1.025     5.0997 0.0000e+00
     -0.720 2.3399e-07    11.7554     92.378      1.101   0.663084    -0.0907     -2.726 -1240.7432 9.8425e+01     1.3114     -0.706     -1.025     5.1011 0.0000e+00
     -0.720      0.000    11.7547     92.396      1.120   0.674741    -0.0844     -2.725 -1240.7205 9.8555e+01     1.3455     -0.706     -1.025     5.1021 0.0000e+00
     -0.720      0.000    11.7597     92.397      1.125   0.677233    -0.0410     -2.719 -1240.4700 1.0043e+02     1.5519     -0.706     -1.025     5.1041 0.0000e+00
     -0.721      0.000    11.7626     92.382      1.151   0.693212     0.1003     -2.647 -1237.7155 1.0328e+02     2.9871     -0.707     -1.025     5.1042 0.0000e+00
     -0.721      0.003    11.7640     92.362      1.229   0.741257     0.3258     -1.854 -1207.4150 1.0632e+02     5.5124     -0.707     -1.026     5.1070 0.0000e+00
     -0.721      0.013    11.7688     92.343      1.856   1.131456     0.4385      0.090  -874.1101 1.0892e+02     6.8763     -0.707     -1.026     5.1051 0.0000e+00
     -0.720      0.030    11.7661     92.278      8.319   5.157702     0.4642      2.220  -261.5453 1.1101e+02     7.0778     -0.706     -1.023     5.1106 0.0000e+00
     -0.719      0.055    11.7670     92.113     25.345  15.965469     0.5452      3.715    76.1558 1.1430e+02     7.6073     -0.707     -1.026     5.1034 0.0000e+00
     -0.709      0.087    11.7584     91.909     42.548  27.288011     0.6513      4.658   110.3011 1.2162e+02     8.4950     -0.702     -1.019     5.1158 0.0000e+00
     -0.682      0.123    11.7650     91.786     48.746  31.932085     0.7147      5.240   110.0036 1.3493e+02     9.0325     -0.674     -0.977     5.0951 0.0000e+00
     -0.642      0.159    11.7261     91.781     48.529  32.482531     0.7466      5.604   106.2004 1.5005e+02     9.1872     -0.633     -0.918     5.2143 0.0000e+00
     -0.592      0.194    11.4914     91.801     47.874  32.611834     0.7534      5.847   110.7784 1.6075e+02     9.3075     -0.583     -0.846     5.9182 0.0000e+00
     -0.533      0.224    11.1748     91.778     47.268  32.607855     0.7229      6.025   112.7854 1.6624e+02     9.3935     -0.525     -0.761     6.9146 0.0000e+00
     -0.471      0.247    10.9221     91.779     46.633  32.434830     0.6858      6.154   107.7527 1.6549e+02     9.3730     -0.461     -0.669     7.7757 0.0000e+00
     -0.408      0.257    10.7312     91.852     46.120  32.232992     0.6790      6.243   106.2837 1.5655e+02     9.3664     -0.400     -0.581     8.5168 0.0000e+00
     -0.339      0.253    10.5840     92.020     45.954  32.197731     0.6906      6.312   107.9298 1.2631e+02     9.3829     -0.340     -0.493     9.1241 0.0000e+00
     -0.260      0.236    10.4679     92.303     45.982  32.262328     0.6761      6.371   114.1471 8.4125e+01     9.2640     -0.253     -0.368     9.5457 0.0000e+00
     -0.185      0.209    10.4007     92.664     46.008  32.316225     0.6451      6.421   121.4016 6.6150e+01     9.0903     -0.169     -0.246     9.8160 0.0000e+00
     -0.133      0.176    10.3707     93.080     46.001  32.341900     0.6317      6.461   120.1009 6.4829e+01     8.9910     -0.124     -0.179     9.9723 0.0000e+00
     -0.103      0.138    10.3694     93.571     45.939  32.319040     0.6480      6.491   117.2624 5.9536e+01     9.0538     -0.098     -0.143    10.0408 0.0000e+00
     -0.082      0.098    10.3956     94.121     45.894  32.293607     0.6925      6.511   118.4860 5.3208e+01     9.1672     -0.079     -0.114    10.0809 0.0000e+00
     -0.066      0.064    10.4278     94.646     45.894  32.288163     0.7118      6.533   124.8295 5.0389e+01     9.1322     -0.065     -0.093    10.1190 0.0000e+00
     -0.052      0.042    10.4635     95.066     45.858  32.253213     0.6897      6.559   132.0122 5.3364e+01     9.0741     -0.050     -0.072    10.1556 0.0000e+00
     -0.043      0.032    10.5130     95.357     45.687  32.124785     0.6748      6.588   134.8649 6.0524e+01     9.0802     -0.039     -0.056    10.1794 0.0000e+00
     -0.043      0.028    10.5776     95.551     45.432  31.940706     0.6891      6.617   139.9626 6.7409e+01     9.1369     -0.042     -0.061    10.1867 0.0000e+00
     -0.045      0.026    10.6427     95.673     45.247  31.803851     0.7140      6.645   144.7780 7.0223e+01     9.2135     -0.049     -0.071    10.1749 0.0000e+00
     -0.040      0.025    10.6945     95.738     45.184  31.738869     0.7097      6.673   145.8519 7.0113e+01     9.1530     -0.043     -0.063    10.1626 0.0000e+00
     -0.025      0.021    10.7267     95.773     45.219  31.725951     0.6863      6.700   146.4937 7.0807e+01     9.0876     -0.024     -0.035    10.1545 0.0000e+00
     -0.010      0.013    10.7495     95.808     45.348  31.774500     0.6977      6.726   146.8594 7.1075e+01     9.1750     -0.007     -0.009    10.1472 0.0000e+00
     -0.005      0.003    10.7627     95.873     45.556  31.881745     0.7474      6.756   146.9182 6.8926e+01     9.2867     -0.001     -0.002    10.1503 0.0000e+00
     -0.009     -0.006    10.7737     95.923     45.598  31.880688     0.7801      6.788   146.7746 6.7613e+01     9.2773     -0.006     -0.008    10.1277 0.0000e+00
     -0.020     -0.011    10.7905     95.899     45.452  31.761692     0.7599      6.818   146.7579 6.9149e+01     9.1291     -0.016     -0.024    10.0771 0.0000e+00
     -0.035     -0.012    10.8031     95.836     45.410  31.711745     0.7188      6.842   146.9740 7.1141e+01     9.0661     -0.036     -0.053    10.0301 0.0000e+00
     -0.043     -0.012    10.8238     95.796     45.512  31.720838     0.7079      6.865   147.0645 7.2028e+01     9.1651     -0.051     -0.073     9.9879 0.0000e+00
     -0.034     -0.008    10.8439     95.766     45.692  31.744697     0.7024      6.888   146.9062 7.2554e+01     9.1645     -0.035     -0.051     9.9494 0.0000e+00
     -0.022     -0.001    10.8423     95.725     45.818  31.746357     0.6778      6.909   146.8674 7.3943e+01     9.0254     -0.014     -0.020     9.9328 0.0000e+00
     -0.024      0.007    10.8310     95.680     45.762  31.677376     0.6691      6.926   147.0259 7.6423e+01     8.9859     -0.021     -0.029     9.9354 0.0000e+00
     -0.035      0.010    10.8444     95.620     45.635  31.608460     0.6888      6.940   147.1877 7.6978e+01     9.0965     -0.040     -0.058     9.8707 0.0000e+00
     -0.037      0.009    10.8807     95.584     45.585  31.610947     0.7165      6.954   147.3610 7.4213e+01     9.2015     -0.043     -0.061     9.7267 0.0000e+00
     -0.027      0.009    10.9013     95.596     45.582  31.644051     0.7120      6.972   147.4864 7.0330e+01     9.1617     -0.027     -0.039     9.6138 0.0000e+00
     -0.017      0.014    10.9071     95.581     45.514  31.628120     0.6848      6.992   147.5848 6.8180e+01     9.0933     -0.012     -0.017     9.5880 0.0000e+00
     -0.014      0.019    10.8879     95.534     45.354  31.545237     0.6778      7.012   147.5188 6.8225e+01     9.1273     -0.012     -0.018     9.6233 0.0000e+00
     -0.014      0.019    10.8666     95.518     45.214  31.466647     0.6952      7.029   145.1393 6.9565e+01     9.1621     -0.017     -0.024     9.6753 0.0000e+00
     -0.012      0.016    10.8674     95.573     45.245  31.502613     0.7204      7.042   140.5818 6.9980e+01     9.1716     -0.014     -0.020     9.7082 0.0000e+00
     -0.005      0.016    10.8547     95.664     45.451  31.662919     0.7156      7.054   137.8441 6.9262e+01     9.1396     -0.006     -0.008     9.7434 0.0000e+00
      0.002      0.021    10.8370     95.714     45.534  31.755504     0.6791      7.066   137.1620 6.8928e+01     9.1514      0.004      0.007     9.7808 0.0000e+00
      0.005      0.029    10.8292     95.706     45.323  31.670495     0.6618      7.076   136.6355 6.8936e+01     9.2806      0.008      0.010     9.7953 0.0000e+00
      0.006      0.035    10.8320     95.691     45.101  31.586743     0.6647      7.083   136.1246 6.9069e+01     9.3357      0.003      0.006     9.8137 0.0000e+00
      0.014      0.040    10.8455     95.698     45.102  31.631085     0.6638      7.090   135.7171 6.6482e+01     9.2714      0.009      0.013     9.8207 0.0000e+00
      0.032      0.048    10.8428     95.705     45.287  31.762608     0.6679      7.099   135.4079 6.4049e+01     9.1859      0.032      0.045     9.8551 0.0000e+00
      0.050      0.061    10.8196     95.694     45.490  31.908192     0.6893      7.108   135.1392 6.4727e+01     9.1560      0.052      0.077     9.9309 0.0000e+00
      0.062      0.075    10.7920     95.690     45.462  31.932213     0.7225      7.111   135.0496 6.5275e+01     9.2520      0.059      0.086    10.0258 0.0000e+00
      0.076      0.084    10.7779     95.749     45.157  31.799333     0.7281      7.107   135.0991 6.3591e+01     9.2865      0.071      0.102    10.0913 0.0000e+00
      0.100      0.085    10.7873     95.882     44.885  31.697308     0.6989      7.105   135.1355 5.9823e+01     9.1292      0.095      0.137    10.0610 0.0000e+00
      0.131      0.081    10.7882     96.067     44.821  31.713768     0.6769      7.112   135.1459 5.6935e+01     9.0241      0.128      0.185    10.0503 0.0000e+00
      0.163      0.071    10.7709     96.287     44.915  31.808087     0.6875      7.126   135.1384 5.5310e+01     9.0748      0.166      0.240    10.1011 0.0000e+00
      0.185      0.056    10.7522     96.523     45.103  31.949585     0.7105      7.142   135.1308 5.4135e+01     9.1617      0.186      0.271    10.2028 0.0000e+00
      0.192      0.036    10.7375     96.736     45.296  32.092390     0.7050      7.161   135.0529 5.4475e+01     9.1518      0.190      0.277    10.3235 0.0000e+00
      0.192      0.017    10.7424     96.936     45.432  32.202495     0.6794      7.181   134.8853 5.5474e+01     9.0926      0.189      0.274    10.3911 0.0000e+00
      0.187      0.004    10.7606     97.129     45.492  32.265826     0.6672      7.199   134.7389 5.6407e+01     9.0950      0.183      0.266    10.4137 0.0000e+00
      0.184     -0.001    10.7899     97.255     45.492  32.287168     0.6818      7.215   134.6600 5.7057e+01     9.1122      0.180      0.261    10.4163 0.0000e+00
      0.183     -0.001    10.8127     97.346     45.442  32.270248     0.7073      7.231   134.7059 5.7146e+01     9.1301      0.179      0.259    10.4191 0.0000e+00
      0.184      0.001    10.8267     97.430     45.395  32.251588     0.7004      7.246   134.8639 5.6902e+01     9.1057      0.180      0.261    10.4343 0.0000e+00
      0.187      0.003    10.8508     97.497     45.378  32.251885     0.6733      7.262   134.8484 5.6677e+01     9.0910      0.183      0.264    10.4608 0.0000e+00
      0.189      0.004    10.8520     97.568     45.391  32.273864     0.6790      7.277   134.6911 5.6737e+01     9.1571      0.185      0.269    10.4857 0.0000e+00
      0.191      0.003    10.8568     97.654     45.448  32.327023     0.6943      7.292   134.6831 5.6632e+01     9.1537      0.187      0.271    10.5064 0.0000e+00
      0.191      0.002    10.8649     97.763     45.515  32.387104     0.7010      7.306   134.7510 5.6824e+01     9.0496      0.188      0.272    10.5212 0.0000e+00
      0.191      0.000    10.8657     97.904     45.559  32.429352     0.7096      7.319   134.7382 5.6917e+01     8.9919      0.188      0.273    10.5337 0.0000e+00
      0.190     -0.002    10.8715     98.075     45.584  32.457207     0.6980      7.332   134.5279 5.6462e+01     9.0369      0.187      0.272    10.5481 0.0000e+00
      0.189     -0.002    10.8756     98.250     45.592  32.470130     0.6938      7.346   134.0152 5.6430e+01     9.1489      0.185      0.267    10.5626 0.0000e+00
      0.187     -0.002    10.8852     98.422     45.571  32.458720     0.6836      7.358   133.3576 5.6366e+01     9.1844      0.183      0.265    10.5761 0.0000e+00
      0.187     -0.001    10.8961     98.607     45.552  32.446148     0.6415      7.368   132.6865 5.6162e+01     9.0913      0.183      0.265    10.5887 0.0000e+00
      0.188      0.000    10.9151     98.806     45.552  32.445007     0.6172      7.380   132.0100 5.6139e+01     9.0130      0.185      0.267    10.5998 0.0000e+00
      0.189      0.001    10.9321     99.016     45.552  32.444914     0.6228      7.391   131.3722 5.6137e+01     9.0578      0.186      0.269    10.6085 0.0000e+00
      0.189      0.001    10.9489     99.276     45.551  32.445029     0.6438      7.401   130.7393 5.6327e+01     9.1543      0.185      0.269    10.6130 0.0000e+00
      0.188      0.001    10.9699     99.560     45.550  32.446400     0.6458      7.412   130.1227 5.6195e+01     9.1217      0.185      0.268    10.6126 0.0000e+00
      0.188      0.000    10.9935     99.589     45.567  32.461489     0.6219      7.423   129.5958 5.5875e+01     9.0049      0.185      0.268    10.6105 0.0000e+00
      0.188     -0.001    11.0149     98.840     45.620  32.500592     0.6123      7.433   129.0138 5.5610e+01     8.9715      0.185      0.268    10.6097 0.0000e+00
      0.189     -0.001    11.0414     96.805     45.671  32.538541     0.6297      7.443   128.2487 5.5376e+01     9.0595      0.185      0.268    10.6101 0.0000e+00
      0.189     -0.001    11.0838     93.315     45.668  32.539686     0.6584      7.454   127.5729 5.5464e+01     9.1812      0.186      0.270    10.6127 0.0000e+00
      0.188      0.000    11.1082     88.565     45.628  32.514436     0.6598      7.464   127.1232 5.5462e+01     9.1786      0.185      0.268    10.6174 0.0000e+00
      0.185      0.000    11.0482     82.985     45.592  32.487012     0.6376      7.473   126.7691 5.5401e+01     9.0624      0.180      0.262    10.6192 0.0000e+00
      0.185      0.000    10.8287     77.116     45.564  32.461874     0.6406      7.482   126.4750 5.5155e+01     9.0407      0.181      0.262    10.6190 0.0000e+00
      0.188     -0.001    10.4281     71.401     45.574  32.464257     0.6624      7.490   126.2342 5.4835e+01     9.1882      0.185      0.268    10.6239 0.0000e+00
      0.189     -0.003     9.8842     66.230     45.651  32.515822     0.6681      7.499   126.0946 5.4780e+01     9.2755      0.186      0.270    10.6297 0.0000e+00
      0.188     -0.005     9.2378     62.032     45.738  32.577796     0.6514      7.507   126.0776 5.4730e+01     9.1741      0.185      0.268    10.6273 0.0000e+00
      0.187     -0.006     8.5713     58.970     45.736  32.579168     0.6274      7.514   126.0286 5.5103e+01     9.0553      0.185      0.268    10.6194 0.0000e+00
      0.182     -0.007     7.9257     56.899     45.670  32.532416     0.6274      7.521   125.8464 5.5538e+01     9.0687      0.180      0.262    10.6149 0.0000e+00
      0.177     -0.007     7.3267     55.544     45.662  32.520053     0.6339      7.530   125.5959 5.5553e+01     9.1308      0.172      0.249    10.6101 0.0000e+00
      0.176     -0.006     6.8557     54.635     45.723  32.556559     0.6316      7.539   125.2373 5.5485e+01     9.0886      0.171      0.247    10.6081 0.0000e+00
      0.178     -0.003     6.5211     54.003     45.773  32.593149     0.6336      7.547   124.7791 5.5256e+01     9.0021      0.177      0.256    10.6157 0.0000e+00
      0.178     -0.001     6.3019     53.607     45.749  32.581814     0.6322      7.552   124.2720 5.5337e+01     9.0424      0.176      0.255    10.6196 0.0000e+00
      0.177     -0.000     6.1636     53.383     45.696  32.546397     0.6486      7.558   123.7510 5.5837e+01     9.2003      0.172      0.250    10.6071 0.0000e+00
      0.177     -0.002     6.0726     53.219     45.697  32.545578     0.6562      7.564   123.2983 5.5923e+01     9.2369      0.173      0.250    10.5941 0.0000e+00
      0.180     -0.004     6.0005     53.091     45.734  32.571912     0.6326      7.571   122.9288 5.5882e+01     9.1088      0.177      0.256    10.5988 0.0000e+00
      0.180     -0.006     5.9557     52.969     45.783  32.611028     0.6212      7.578   122.6393 5.6143e+01     9.0181      0.178      0.257    10.6097 0.0000e+00
      0.176     -0.008     5.9400     52.853     45.813  32.637884     0.6350      7.586   122.3792 5.6403e+01     9.0278      0.173      0.250    10.6121 0.0000e+00
      0.172     -0.012     5.9185     52.789     45.816  32.642868     0.6586      7.595   122.1070 5.6684e+01     9.0899      0.167      0.242    10.6073 0.0000e+00
      0.169     -0.016     5.9080     52.752     45.851  32.671292     0.6562      7.602   121.8432 5.6923e+01     9.1206      0.165      0.240    10.6049 0.0000e+00
      0.166     -0.016     5.8945     52.725     45.920  32.727787     0.6315      7.609   121.6844 5.7212e+01     9.1264      0.165      0.239    10.6117 0.0000e+00
      0.160     -0.012     5.8750     52.738     45.949  32.754969     0.6342      7.618   121.5643 5.7724e+01     9.2271      0.158      0.230    10.6196 0.0000e+00
      0.153     -0.008     5.8716     52.783     45.848  32.682751     0.6561      7.624   121.3376 5.8089e+01     9.3133      0.148      0.215    10.6204 0.0000e+00
      0.149     -0.005     5.8682     52.854     45.679  32.552461     0.6632      7.627   121.1803 5.7683e+01     9.2810      0.143      0.207    10.6233 0.0000e+00
      0.151     -0.003     5.8604     52.984     45.638  32.511911     0.6621      7.627   121.2107 5.6988e+01     9.2127      0.146      0.212    10.6325 0.0000e+00
      0.157     -0.003     5.8624     53.152     45.730  32.573111     0.6676      7.629   121.1894 5.6697e+01     9.1701      0.155      0.224    10.6424 0.0000e+00
      0.161     -0.004     5.8680     53.313     45.846  32.658000     0.6872      7.633   121.0953 5.6834e+01     9.2103      0.161      0.233    10.6457 0.0000e+00
      0.158     -0.005     5.8745     53.475     45.914  32.713551     0.7078      7.639   121.1046 5.7532e+01     9.1864      0.157      0.227    10.6295 0.0000e+00
      0.149     -0.005     5.8931     53.657     45.852  32.673810     0.7000      7.645   121.3011 5.7979e+01     9.0517      0.146      0.211    10.6126 0.0000e+00
      0.143     -0.003     5.9148     53.849     45.788  32.621590     0.6767      7.653   121.6650 5.7928e+01     8.9820      0.138      0.199    10.6108 0.0000e+00
      0.143      0.002     5.9318     54.074     45.851  32.653140     0.6759      7.661   121.9768 5.7671e+01     9.0271      0.137      0.200    10.6117 0.0000e+00
      0.148      0.010     5.9462     54.339     45.891  32.674607     0.6982      7.668   122.1456 5.7054e+01     9.1529      0.144      0.209    10.6221 0.0000e+00
      0.154      0.016     5.9673     54.594     45.826  32.627375     0.7137      7.674   122.2437 5.6695e+01     9.2046      0.152      0.220    10.6343 0.0000e+00
      0.159      0.018     5.9882     54.793     45.777  32.589589     0.7046      7.677   122.3018 5.6081e+01     9.1059      0.156      0.226    10.6238 0.0000e+00
      0.165      0.016     6.0144     54.893     45.799  32.598387     0.6800      7.678   122.3319 5.5087e+01     9.0520      0.161      0.233    10.6018 0.0000e+00
      0.170      0.012     6.0496     54.882     45.817  32.606868     0.6745      7.679   122.4364 5.4792e+01     9.1344      0.168      0.243    10.5948 0.0000e+00
      0.174      0.008     6.0773     54.804     45.757  32.565241     0.6961      7.682   122.6185 5.4942e+01     9.2147      0.173      0.250    10.5986 0.0000e+00
      0.174      0.005     6.1026     54.704     45.630  32.475722     0.7006      7.687   122.7265 5.5257e+01     9.2020      0.171      0.249    10.5963 0.0000e+00
      0.172      0.001     6.1159     54.565     45.545  32.412684     0.6862      7.692   122.7110 5.5608e+01     9.1180      0.168      0.244    10.5854 0.0000e+00
      0.172     -0.005     6.1138     54.362     45.582  32.437475     0.6888      7.698   122.5169 5.5708e+01     9.1210      0.167      0.243    10.5769 0.0000e+00
      0.173     -0.011     6.1011     54.135     45.699  32.521698     0.7076      7.707   122.1860 5.5447e+01     9.2389      0.171      0.248    10.5825 0.0000e+00
      0.173     -0.015     6.0912     53.923     45.724  32.542843     0.7220      7.717   121.9796 5.5458e+01     9.2799      0.174      0.252    10.5851 0.0000e+00
      0.166     -0.017     6.0793     53.721     45.577  32.439365     0.7128      7.727   122.0000 5.6270e+01     9.2060      0.165      0.239    10.5786 0.0000e+00
      0.155     -0.018     6.0532     53.519     45.449  32.349070     0.6875      7.735   122.1749 5.7120e+01     9.0971      0.150      0.218    10.5797 0.0000e+00
      0.147     -0.019     6.0268     53.335     45.516  32.402705     0.6826      7.742   122.4590 5.7242e+01     9.0566      0.142      0.205    10.5783 0.0000e+00
      0.146     -0.015     6.0023     53.156     45.665  32.516899     0.6870      7.748   122.6820 5.6900e+01     9.0921      0.142      0.206    10.5839 0.0000e+00
      0.146     -0.006     5.9816     52.938     45.668  32.524402     0.6823      7.747   122.7210 5.7432e+01     9.1152      0.145      0.211    10.5874 0.0000e+00
      0.143      0.005     5.9569     52.674     45.440  32.366548     0.6843      7.734   122.5855 5.8615e+01     9.0971      0.142      0.206    10.5817 0.0000e+00
      0.139      0.013     5.9360     52.395     45.202  32.194325     0.6782      7.717   122.3342 5.8871e+01     9.0787      0.133      0.194    10.5920 0.0000e+00
      0.143      0.014     5.9176     52.122     45.270  32.218425     0.6669      7.707   122.1772 5.7531e+01     9.0635      0.136      0.197    10.6025 0.0000e+00
      0.157      0.012     5.8923     51.827     45.589  32.404148     0.6639      7.707   122.0651 5.5575e+01     9.0162      0.154      0.224    10.6067 0.0000e+00
      0.170      0.009     5.8611     51.503     45.816  32.536603     0.6667      7.712   121.9241 5.4872e+01     8.9842      0.172      0.249    10.6132 0.0000e+00
      0.172      0.006     5.8268     51.150     45.753  32.487639     0.6680      7.719   121.9360 5.5441e+01     8.9849      0.174      0.252    10.6193 0.0000e+00
      0.162      0.003     5.8032     50.779     45.501  32.319654     0.6627      7.729   122.0369 5.6276e+01     9.0584      0.158      0.230    10.5942 0.0000e+00
      0.152     -0.002     5.7780     50.452     45.346  32.218440     0.6777      7.740   122.1116 5.6262e+01     9.1221      0.144      0.210    10.5298 0.0000e+00
      0.152     -0.004     5.7470     50.221     45.451  32.278931     0.6994      7.750   122.1507 5.5274e+01     9.0034      0.146      0.212    10.4924 0.0000e+00
      0.160     -0.004     5.7080     50.073     45.680  32.416624     0.6920      7.759   122.1649 5.4713e+01     8.8188      0.157      0.229    10.4962 0.0000e+00
      0.165      0.000     5.6603     49.948     45.790  32.487539     0.6879      7.769   122.1122 5.5087e+01     8.8028      0.165      0.240    10.5115 0.0000e+00
      0.163      0.003     5.6192     49.831     45.708  32.438494     0.7003      7.778   121.8567 5.5872e+01     8.9805      0.162      0.234    10.5348 0.0000e+00
      0.156      0.004     5.5960     49.752     45.715  32.458059     0.6923      7.788   121.4849 5.6490e+01     9.1566      0.151      0.220    10.5150 0.0000e+00
      0.153      0.004     5.5899     49.747     46.055  32.724100     0.6655      7.797   121.1447 5.6493e+01     9.1563      0.147      0.214    10.4670 0.0000e+00
      0.157      0.004     5.5760     49.856     46.453  33.054061     0.6427      7.805   120.9264 5.5977e+01     9.0446      0.153      0.222    10.4664 0.0000e+00
      0.164      0.005     5.5591     50.149     46.570  33.212073     0.6573      7.813   120.8243 5.5381e+01     9.0696      0.162      0.235    10.4828 0.0000e+00
      0.168      0.005     5.5476     50.698     46.499  33.238943     0.7006      7.822   120.6853 5.5029e+01     9.1522      0.167      0.242    10.4950 0.0000e+00
      0.168      0.004     5.5432     51.500     46.440  33.252146     0.7170      7.831   120.5359 5.5089e+01     9.1205      0.166      0.240    10.5154 0.0000e+00
      0.165      0.001     5.5465     52.484     46.386  33.244872     0.7059      7.840   120.3942 5.5159e+01     9.0965      0.161      0.235    10.5603 0.0000e+00
      0.163     -0.001     5.5630     53.557     46.326  33.214479     0.6994      7.848   120.2622 5.4993e+01     9.1008      0.159      0.232    10.6556 0.0000e+00
      0.163     -0.001     5.6119     54.608     46.307  33.201892     0.7131      7.855   120.2315 5.4630e+01     9.1392      0.160      0.231    10.7499 0.0000e+00
      0.164     -0.001     5.6966     55.481     46.336  33.219570     0.7220      7.861   120.2806 5.4278e+01     9.1502      0.161      0.233    10.8076 0.0000e+00
      0.165     -0.001     5.8053     56.052     46.366  33.237889     0.6987      7.868   120.3401 5.4219e+01     9.0630      0.163      0.236    10.8397 0.0000e+00
      0.165      0.000     5.9250     56.307     46.360  33.233055     0.6728      7.875   120.2629 5.4432e+01     9.0063      0.163      0.237    10.8501 0.0000e+00
      0.164      0.001     6.0501     56.380     46.348  33.224570     0.6914      7.882   120.0352 5.4754e+01     9.0798      0.160      0.233    10.8486 0.0000e+00
      0.163      0.001     6.1512     56.382     46.312  33.198735     0.7333      7.888   119.9094 5.4807e+01     9.2005      0.158      0.230    10.8429 0.0000e+00
      0.163      0.001     6.2178     56.317     46.279  33.174461     0.7381      7.894   119.8607 5.4514e+01     9.2012      0.159      0.230    10.8395 0.0000e+00
      0.165      0.001     6.2380     56.237     46.297  33.184853     0.7154      7.901   119.6187 5.4122e+01     9.1222      0.163      0.235    10.8391 0.0000e+00
      0.167      0.000     6.2399     56.246     46.321  33.197488     0.7166      7.907   119.3068 5.3864e+01     9.1338      0.165      0.239    10.8400 0.0000e+00
      0.168     -0.001     6.2437     56.340     46.329  33.200338     0.7446      7.914   119.1870 5.3883e+01     9.2051      0.165      0.239    10.8404 0.0000e+00
      0.166     -0.001     6.2337     56.422     46.356  33.219318     0.7630      7.921   119.2027 5.3972e+01     9.1983      0.164      0.237    10.8394 0.0000e+00
      0.163     -0.001     6.2198     56.478     46.376  33.236645     0.7553      7.928   119.2384 5.3926e+01     9.1198      0.160      0.232    10.8364 0.0000e+00
      0.161      0.001     6.2200     56.487     46.347  33.219509     0.7264      7.934   119.1875 5.3883e+01     9.0768      0.157      0.228    10.8315 0.0000e+00
      0.161      0.004     6.2407     56.429     46.319  33.202454     0.7053      7.941   119.1039 5.3908e+01     9.1572      0.157      0.228    10.8275 0.0000e+00
      0.163      0.006     6.2453     56.364     46.342  33.220772     0.7080      7.948   119.1748 5.3809e+01     9.2372      0.159      0.232    10.8270 0.0000e+00
      0.168      0.006     6.2534     56.319     46.381  33.250660     0.7099      7.953   119.0981 5.3353e+01     9.2247      0.165      0.240    10.8304 0.0000e+00
      0.173      0.005     6.2563     56.280     46.373  33.246609     0.6946      7.959   118.6923 5.2961e+01     9.1757      0.170      0.247    10.8357 0.0000e+00
      0.174      0.003     6.2441     56.227     46.356  33.235243     0.6730      7.964   118.3982 5.3088e+01     9.1235      0.171      0.248    10.8392 0.0000e+00
      0.172     -0.001     6.2365     56.144     46.363  33.240128     0.6820      7.969   118.3821 5.3196e+01     9.1400      0.168      0.244    10.8408 0.0000e+00
      0.171     -0.006     6.2320     56.040     46.369  33.242223     0.7115      7.974   118.4106 5.3067e+01     9.2047      0.167      0.242    10.8427 0.0000e+00
      0.170     -0.010     6.2281     55.928     46.398  33.260566     0.7041      7.979   118.3992 5.3172e+01     9.1883      0.168      0.243    10.8451 0.0000e+00
      0.167     -0.012     6.2230     55.777     46.416  33.271581     0.6676      7.984   118.4163 5.3472e+01     9.0786      0.164      0.238    10.8460 0.0000e+00
      0.161     -0.012     6.2142     55.587     46.385  33.248513     0.6535      7.989   118.4455 5.3659e+01     9.0732      0.158      0.230    10.8457 0.0000e+00
      0.156     -0.011     6.1998     55.365     46.367  33.235424     0.6751      7.993   118.4940 5.3931e+01     9.1920      0.152      0.221    10.8434 0.0000e+00
      0.153     -0.007     6.1927     55.136     46.372  33.240209     0.6964      7.996   118.4861 5.4299e+01     9.1826      0.150      0.217    10.8392 0.0000e+00
      0.152     -0.001     6.1739     54.973     46.376  33.242927     0.6858      8.001   118.4361 5.4463e+01     9.0277      0.149      0.216    10.8369 0.0000e+00
      0.152      0.004     6.1534     54.896     46.411  33.268288     0.6708      8.006   118.5783 5.4450e+01     8.9591      0.148      0.215    10.8366 0.0000e+00
      0.154      0.007     6.1294     54.880     46.445  33.293078     0.6736      8.012   118.8289 5.4296e+01     9.0708      0.151      0.219    10.8370 0.0000e+00
      0.159      0.008     6.0979     54.918     46.438  33.288886     0.6861      8.017   118.9706 5.3971e+01     9.2506      0.156      0.225    10.8379 0.0000e+00
      0.164      0.007     6.0804     54.987     46.425  33.281038     0.6986      8.022   119.0876 5.3503e+01     9.2531      0.162      0.234    10.8381 0.0000e+00
      0.167      0.004     6.0737     55.039     46.395  33.261642     0.6912      8.027   119.2968 5.3137e+01     9.1013      0.165      0.240    10.8381 0.0000e+00
      0.166     -0.001     6.0715     55.063     46.370  33.244704     0.6888      8.031   119.5207 5.3051e+01     9.1233      0.164      0.238    10.8385 0.0000e+00
      0.163     -0.005     6.0755     55.051     46.400  33.266577     0.7103      8.036   119.5580 5.3119e+01     9.2466      0.160      0.232    10.8395 0.0000e+00
      0.160     -0.007     6.0871     55.016     46.407  33.272330     0.7266      8.041   119.3179 5.3306e+01     9.2255      0.156      0.227    10.8411 0.0000e+00
      0.158     -0.007     6.0910     54.980     46.377  33.250819     0.7280      8.045   119.0262 5.3527e+01     9.1413      0.155      0.225    10.8434 0.0000e+00
      0.156     -0.006     6.0946     54.932     46.390  33.260265     0.7194      8.050   118.7842 5.3792e+01     9.0831      0.153      0.221    10.8451 0.0000e+00
      0.154     -0.004     6.0932     54.879     46.389  33.259656     0.7219      8.055   118.5429 5.4099e+01     9.1026      0.151      0.218    10.8458 0.0000e+00
      0.154     -0.002     6.0861     54.810     46.365  33.243446     0.7411      8.060   118.4318 5.4285e+01     9.1711      0.151      0.218    10.8460 0.0000e+00
      0.154     -0.001     6.0856     54.725     46.377  33.254608     0.7524      8.065   118.4734 5.4387e+01     9.1942      0.151      0.219    10.8459 0.0000e+00
      0.154      0.001     6.0775     54.670     46.392  33.267729     0.7421      8.069   118.5294 5.4474e+01     9.1782      0.152      0.220    10.8461 0.0000e+00
      0.154      0.004     6.0732     54.663     46.400  33.275213     0.7166      8.073   118.5076 5.4560e+01     9.1133      0.151      0.219    10.8456 0.0000e+00
      0.154      0.006     6.0668     54.677     46.410  33.281657     0.7183      8.078   118.4669 5.4491e+01     9.1268      0.150      0.218    10.8459 0.0000e+00
      0.156      0.007     6.0530     54.711     46.412  33.282192     0.7456      8.083   118.4672 5.3956e+01     9.1702      0.152      0.220    10.8494 0.0000e+00
      0.160      0.006     6.0455     54.732     46.414  33.281673     0.7469      8.086   118.2541 5.3162e+01     9.0575      0.156      0.226    10.8532 0.0000e+00
      0.164      0.005     6.0478     54.678     46.409  33.275386     0.7260      8.090   117.9551 5.2760e+01     8.9610      0.162      0.235    10.8544 0.0000e+00
      0.166      0.003     6.0479     54.566     46.404  33.269618     0.7175      8.094   117.9497 5.2730e+01     9.0281      0.164      0.238    10.8541 0.0000e+00
      0.165      0.001     6.0518     54.401     46.415  33.275371     0.7357      8.099   117.9303 5.2800e+01     9.1506      0.163      0.236    10.8528 0.0000e+00
      0.162     -0.001     6.0612     54.181     46.425  33.281501     0.7468      8.103   117.8065 5.3000e+01     9.1447      0.159      0.231    10.8506 0.0000e+00
      0.160     -0.001     6.0507     53.930     46.423  33.280290     0.7258      8.107   117.9151 5.3100e+01     9.0247      0.156      0.226    10.8479 0.0000e+00
      0.160      0.000     6.0402     53.679     46.395  33.260723     0.7156      8.110   118.2107 5.2965e+01     9.0318      0.155      0.226    10.8449 0.0000e+00
      0.162      0.001     6.0226     53.463     46.358  33.235260     0.7484      8.114   118.5416 5.2804e+01     9.1968      0.158      0.231    10.8425 0.0000e+00
      0.164      0.003     5.9968     53.290     46.346  33.226190     0.7976      8.118   118.8191 5.2744e+01     9.2783      0.161      0.234    10.8412 0.0000e+00
      0.165      0.003     5.9690     53.172     46.332  33.214497     0.8036      8.122   118.9841 5.2724e+01     9.1972      0.162      0.235    10.8415 0.0000e+00
      0.165      0.002     5.9373     53.058     46.344  33.220775     0.7697      8.127   119.0738 5.2622e+01     9.1036      0.161      0.233    10.8428 0.0000e+00
      0.165      0.000     5.9158     52.895     46.371  33.238650     0.7543      8.132   119.0435 5.2465e+01     9.1031      0.162      0.234    10.8436 0.0000e+00
      0.165     -0.002     5.8934     52.699     46.375  33.240289     0.7591      8.135   118.8766 5.2434e+01     9.1572      0.163      0.236    10.8433 0.0000e+00
      0.164     -0.003     5.8837     52.462     46.377  33.240594     0.7611      8.138   118.6042 5.2462e+01     9.1768      0.161      0.233    10.8416 0.0000e+00
      0.162     -0.004     5.8759     52.190     46.381  33.242339     0.7447      8.142   118.3302 5.2384e+01     9.1348      0.159      0.231    10.8388 0.0000e+00
      0.162     -0.004     5.8542     51.935     46.409  33.261373     0.7442      8.147   118.2319 5.2347e+01     9.1282      0.159      0.230    10.8368 0.0000e+00
      0.161     -0.003     5.8347     51.744     46.436  33.280401     0.8054      8.150   118.3616 5.2605e+01     9.1992      0.158      0.229    10.8354 0.0000e+00
      0.158     -0.002     5.8089     51.641     46.436  33.282079     0.8609      8.153   118.6085 5.2908e+01     9.2075      0.154      0.225    10.8344 0.0000e+00
      0.157     -0.001     5.7754     51.659     46.433  33.281664     0.8565      8.157   118.8078 5.2915e+01     9.1268      0.153      0.222    10.8338 0.0000e+00
      0.158      0.001     5.7460     51.841     46.423  33.275385     0.8192      8.162   118.9647 5.2596e+01     9.0426      0.155      0.225    10.8323 0.0000e+00
      0.160      0.003     5.7238     52.169     46.414  33.269606     0.7764      8.166   119.0432 5.2285e+01     9.0092      0.157      0.228    10.8322 0.0000e+00
      0.160      0.005     5.7118     52.547     46.420  33.275228     0.7719      8.168   118.9818 5.2172e+01     9.0639      0.158      0.229    10.8343 0.0000e+00
      0.161      0.005     5.7104     52.921     46.425  33.279923     0.8060      8.171   118.9100 5.1696e+01     9.0896      0.157      0.228    10.8366 0.0000e+00
      0.163      0.004     5.7308     53.289     46.399  33.262918     0.8141      8.175   118.8638 5.1026e+01     9.0129      0.159      0.231    10.8371 0.0000e+00
      0.167      0.002     5.7726     53.631     46.392  33.259968     0.8038      8.179   118.6814 5.0801e+01     8.9562      0.165      0.239    10.8371 0.0000e+00
      0.169      0.001     5.8167     53.931     46.455  33.307696     0.8058      8.183   118.5123 5.0921e+01     8.9846      0.167      0.242    10.8381 0.0000e+00
      0.167      0.002     5.8560     54.173     46.487  33.332444     0.8044      8.187   118.6254 5.1172e+01     9.0483      0.164      0.239    10.8397 0.0000e+00
      0.162      0.003     5.8985     54.315     46.447  33.305417     0.8127      8.190   118.8450 5.1345e+01     8.9757      0.158      0.229    10.8417 0.0000e+00
      0.161      0.004     5.9368     54.408     46.436  33.298142     0.8058      8.193   118.9296 5.1163e+01     8.8583      0.155      0.226    10.8444 0.0000e+00
      0.165      0.005     5.9680     54.516     46.449  33.307923     0.7875      8.196   118.8743 5.0609e+01     8.9944      0.161      0.233    10.8466 0.0000e+00
      0.171      0.005     5.9998     54.581     46.432  33.296795     0.8078      8.200   118.7786 5.0067e+01     9.1872      0.170      0.246    10.8485 0.0000e+00
      0.174      0.005     6.0120     54.571     46.422  33.290488     0.8274      8.203   118.6328 4.9916e+01     9.2085      0.174      0.252    10.8506 0.0000e+00
      0.174      0.003     6.0163     54.543     46.428  33.295110     0.8074      8.206   118.4876 5.0004e+01     9.1485      0.172      0.248    10.8512 0.0000e+00
      0.172     -0.001     6.0339     54.516     46.421  33.289239     0.7741      8.209   118.5725 5.0115e+01     9.0430      0.169      0.245    10.8519 0.0000e+00
      0.170     -0.004     6.0433     54.487     46.413  33.282942     0.7744      8.211   118.7980 5.0178e+01     9.0258      0.167      0.243    10.8532 0.0000e+00
      0.170     -0.004     6.0363     54.452     46.412  33.282422     0.8024      8.214   118.8915 5.0252e+01     9.1459      0.167      0.242    10.8542 0.0000e+00
      0.169     -0.003     6.0343     54.409     46.411  33.282952     0.8058      8.218   118.8433 5.0454e+01     9.1627      0.166      0.241    10.8542 0.0000e+00
      0.167     -0.003     6.0316     54.386     46.418  33.289343     0.7822      8.221   118.6449 5.0544e+01     9.0581      0.163      0.238    10.8536 0.0000e+00
      0.166     -0.008     6.0277     54.382     46.426  33.296255     0.7659      8.223   118.2989 5.0293e+01     9.0089      0.161      0.235    10.8526 0.0000e+00
      0.169     -0.013     6.0258     54.367     46.434  33.303076     0.7836      8.226   117.9295 5.0111e+01     9.0458      0.165      0.240    10.8523 0.0000e+00
      0.170     -0.015     6.0178     54.328     46.440  33.308371     0.8132      8.229   117.6204 5.0673e+01     9.0262      0.170      0.247    10.8538 0.0000e+00
      0.162     -0.014     6.0157     54.275     46.423  33.296845     0.8068      8.232   117.4872 5.1880e+01     8.8747      0.162      0.235    10.8556 0.0000e+00
      0.148     -0.012     6.0164     54.206     46.413  33.290605     0.7819      8.235   117.5232 5.2817e+01     8.7848      0.143      0.207    10.8570 0.0000e+00
      0.141     -0.010     6.0155     54.112     46.423  33.296369     0.7701      8.238   117.5407 5.2847e+01     8.8277      0.133      0.193    10.8573 0.0000e+00
      0.143     -0.007     6.0102     54.007     46.433  33.303080     0.7805      8.240   117.5258 5.2391e+01     8.9484      0.139      0.202    10.8584 0.0000e+00
      0.149     -0.002     6.0036     53.876     46.440  33.308309     0.7917      8.243   117.6012 5.2081e+01     9.0491      0.148      0.215    10.8610 0.0000e+00
      0.152      0.003     5.9977     53.681     46.425  33.296149     0.7723      8.246   117.7639 5.2088e+01     9.0212      0.152      0.220    10.8613 0.0000e+00
      0.151      0.005     5.9854     53.401     46.410  33.282941     0.7624      8.250   117.9439 5.2338e+01     9.0206      0.149      0.216    10.8595 0.0000e+00
      0.147      0.003     5.9747     53.022     46.404  33.275501     0.7711      8.252   118.0575 5.2275e+01     9.0753      0.144      0.208    10.8590 0.0000e+00
      0.147      0.002     5.9631     52.563     46.400  33.269630     0.7774      8.252   118.0182 5.1657e+01     9.1028      0.143      0.208    10.8593 0.0000e+00
      0.151      0.004     5.9408     52.082     46.411  33.275389     0.7895      8.253   117.8127 5.1101e+01     9.1137      0.148      0.215    10.8580 0.0000e+00
      0.154      0.007     5.9119     51.614     46.425  33.281685     0.7844      8.255   117.5519 5.1169e+01     9.0697      0.153      0.221    10.8553 0.0000e+00
      0.154      0.010     5.8702     51.174     46.430  33.282309     0.7737      8.257   117.4460 5.1523e+01     9.0838      0.151      0.219    10.8511 0.0000e+00
      0.155      0.010     5.8161     50.779     46.434  33.282933     0.7766      8.257   117.5654 5.1378e+01     9.1814      0.149      0.217    10.8481 0.0000e+00
      0.160      0.006     5.7623     50.445     46.444  33.289230     0.7777      8.258   117.7907 5.0781e+01     9.2257      0.156      0.226    10.8460 0.0000e+00
      0.166      0.001     5.7105     50.156     46.452  33.294999     0.7628      8.260   117.9324 5.0291e+01     9.1751      0.164      0.238    10.8423 0.0000e+00
      0.168     -0.003     5.6624     49.924     46.443  33.289242     0.7289      8.262   117.9879 5.0304e+01     9.0820      0.167      0.242    10.8383 0.0000e+00
      0.164     -0.006     5.6164     49.741     46.432  33.283069     0.7336      8.262   118.1185 5.0725e+01     9.0904      0.163      0.236    10.8356 0.0000e+00
      0.157     -0.008     5.5825     49.581     46.429  33.283806     0.7862      8.264   118.3075 5.1101e+01     9.1741      0.153      0.222    10.8352 0.0000e+00
      0.150     -0.008     5.5491     49.504     46.444  33.298159     0.8077      8.267   118.3798 5.1327e+01     9.1372      0.145      0.211    10.8348 0.0000e+00
      0.148     -0.006     5.5224     49.532     46.485  33.329719     0.7855      8.269   118.2177 5.1396e+01     9.0543      0.144      0.208    10.8348 0.0000e+00
      0.150     -0.002     5.5068     49.642     46.509  33.348174     0.7671      8.272   117.9827 5.1429e+01     9.0948      0.147      0.214    10.8377 0.0000e+00
      0.154      0.001     5.4818     49.808     46.483  33.330976     0.7774      8.275   117.9476 5.1566e+01     9.1822      0.151      0.219    10.8420 0.0000e+00
      0.155      0.001     5.4735     50.004     46.455  33.312114     0.8096      8.277   118.0511 5.1663e+01     9.1888      0.154      0.223    10.8455 0.0000e+00
      0.155     -0.000     5.4780     50.241     46.453  33.310442     0.8147      8.278   118.1165 5.1683e+01     9.1065      0.152      0.222    10.8474 0.0000e+00
      0.154     -0.002     5.4898     50.517     46.454  33.310763     0.7816      8.281   118.2215 5.1663e+01     9.0750      0.150      0.218    10.8487 0.0000e+00
      0.152     -0.003     5.5108     50.821     46.462  33.316001     0.7509      8.284   118.2885 5.1624e+01     9.1499      0.149      0.216    10.8503 0.0000e+00
      0.150     -0.003     5.5302     51.167     46.454  33.310328     0.7423      8.288   118.2382 5.1512e+01     9.2259      0.147      0.214    10.8514 0.0000e+00
      0.150     -0.002     5.5568     51.584     46.448  33.305609     0.7524      8.290   118.3022 5.1277e+01     9.2079      0.146      0.212    10.8514 0.0000e+00
      0.151     -0.002     5.5886     52.050     46.472  33.322391     0.7488      8.291   118.4590 5.1003e+01     9.1040      0.147      0.213    10.8513 0.0000e+00
      0.152     -0.003     5.6215     52.497     46.472  33.322911     0.7489      8.293   118.4999 5.0921e+01     9.0622      0.149      0.215    10.8505 0.0000e+00
      0.152     -0.004     5.6580     52.889     46.457  33.311886     0.7698      8.297   118.4524 5.1114e+01     9.1132      0.149      0.216    10.8499 0.0000e+00
      0.150     -0.004     5.7044     53.213     46.462  33.315980     0.7687      8.301   118.3157 5.1501e+01     9.1742      0.148      0.214    10.8505 0.0000e+00
      0.146     -0.003     5.7605     53.458     46.451  33.308963     0.7519      8.305   118.1367 5.1936e+01     9.1499      0.144      0.208    10.8505 0.0000e+00
      0.143     -0.002     5.8106     53.635     46.424  33.290497     0.7422      8.308   118.0093 5.2068e+01     8.9899      0.140      0.202    10.8497 0.0000e+00
      0.143     -0.001     5.8542     53.729     46.413  33.283047     0.7502      8.310   117.8934 5.1883e+01     8.8802      0.139      0.203    10.8493 0.0000e+00
      0.146     -0.000     5.8914     53.721     46.413  33.282328     0.7664      8.312   117.9396 5.1619e+01     8.9509      0.144      0.209    10.8503 0.0000e+00
      0.148      0.001     5.9166     53.649     46.412  33.281798     0.7461      8.315   118.2241 5.1462e+01     8.9905      0.147      0.214    10.8518 0.0000e+00
      0.148      0.001     5.9366     53.558     46.405  33.276645     0.7127      8.318   118.4934 5.1491e+01     8.8802      0.146      0.212    10.8525 0.0000e+00
      0.147      0.001     5.9496     53.490     46.415  33.283461     0.7046      8.322   118.7008 5.1504e+01     8.8127      0.143      0.208    10.8524 0.0000e+00
      0.146      0.000     5.9456     53.460     46.439  33.300765     0.7138      8.325   118.9256 5.1336e+01     8.8918      0.142      0.206    10.8519 0.0000e+00
      0.147      0.000     5.9365     53.445     46.431  33.295535     0.7411      8.328   119.0599 5.1112e+01     9.0169      0.143      0.207    10.8517 0.0000e+00
      0.148      0.000     5.9247     53.457     46.415  33.283679     0.7519      8.332   119.1206 5.0962e+01     8.9931      0.145      0.210    10.8514 0.0000e+00
      0.149      0.001     5.9152     53.490     46.415  33.284304     0.7276      8.335   119.0576 5.0987e+01     8.9116      0.146      0.212    10.8513 0.0000e+00
      0.149      0.001     5.9158     53.538     46.439  33.303081     0.7056      8.339   118.8998 5.1220e+01     8.9537      0.146      0.212    10.8516 0.0000e+00
      0.148      0.001     5.9107     53.609     46.461  33.320385     0.7106      8.341   118.7618 5.1378e+01     8.9895      0.145      0.210    10.8517 0.0000e+00
      0.147      0.000     5.9136     53.653     46.435  33.303185     0.7216      8.343   118.5072 5.1354e+01     9.0039      0.143      0.208    10.8515 0.0000e+00
      0.147 1.8616e-08     5.9182     53.630     46.410  33.285458     0.7055      8.346   118.2307 5.1468e+01     9.0249      0.144      0.209    10.8523 0.0000e+00
      0.148 2.0478e-07     5.9206     53.598     46.425  33.296378     0.6994      8.349   118.1716 5.1654e+01     9.0721      0.145      0.211    10.8541 0.0000e+00
      0.148 2.0506e-07     5.9320     53.587     46.443  33.308330     0.7222      8.351   118.3091 5.1629e+01     9.1648      0.146      0.212    10.8556 0.0000e+00
      0.148 2.1972e-08     5.9394     53.535     46.437  33.303072     0.7234      8.354   118.5167 5.1447e+01     9.1555      0.145      0.211    10.8571 0.0000e+00
      0.147 3.8637e-08     5.9328     53.440     46.429  33.296254     0.6972      8.358   118.7027 5.1251e+01     9.0620      0.144      0.209    10.8584 0.0000e+00
      0.147 4.0655e-07     5.9261     53.383     46.420  33.289343     0.6879      8.361   118.8373 5.1139e+01     9.0242      0.144      0.209    10.8581 0.0000e+00
      0.148      0.000     5.9309     53.383     46.414  33.282952     0.7107      8.364   118.9389 5.1083e+01     9.0750      0.145      0.210    10.8570 0.0000e+00
      0.148      0.000     5.9253     53.409     46.415  33.282424     0.7399      8.366   118.9844 5.0973e+01     9.1632      0.145      0.211    10.8560 0.0000e+00
      0.148      0.001     5.9093     53.438     46.417  33.282944     0.7503      8.368   119.0437 5.0831e+01     9.1348      0.145      0.210    10.8548 0.0000e+00
      0.148      0.001     5.9032     53.460     46.426  33.289240     0.7442      8.370   119.1401 5.0850e+01     9.0049      0.145      0.211    10.8538 0.0000e+00
      0.148      0.000     5.9055     53.483     46.433  33.295112     0.7414      8.372   119.2036 5.0931e+01     8.9585      0.146      0.211    10.8519 0.0000e+00
      0.148      0.000     5.9090     53.507     46.425  33.290493     0.7669      8.374   119.2094 5.1010e+01     9.0524      0.145      0.211    10.8497 0.0000e+00
      0.149     -0.001     5.9133     53.504     46.430  33.296846     0.7941      8.376   119.0369 5.1241e+01     9.1833      0.146      0.212    10.8491 0.0000e+00
      0.149     -0.001     5.9151     53.460     46.444  33.308486     0.7707      8.379   118.8390 5.1411e+01     9.1746      0.146      0.211    10.8491 0.0000e+00
      0.148     -0.001     5.9167     53.347     46.437  33.304343     0.7337      8.382   118.8817 5.1267e+01     9.0842      0.145      0.210    10.8495 0.0000e+00
      0.147     -0.001     5.9219     53.149     46.445  33.310196     0.7208      8.385   119.0367 5.0944e+01     9.0473      0.143      0.208    10.8516 0.0000e+00
      0.147     -0.001     5.9201     52.919     46.455  33.315808     0.7227      8.388   119.0791 5.0706e+01     9.0360      0.144      0.209    10.8543 0.0000e+00
      0.148     -0.001     5.9164     52.688     46.447  33.308749     0.7399      8.390   119.0497 5.0621e+01     8.9820      0.145      0.210    10.8565 0.0000e+00
      0.148      0.000     5.9063     52.471     46.420  33.288295     0.7464      8.392   119.1121 5.0724e+01     8.8720      0.145      0.210    10.8574 0.0000e+00
      0.148 3.9100e-07     5.8797     52.283     46.378  33.258832     0.7341      8.394   119.2308 5.0920e+01     8.8330      0.145      0.210    10.8569 0.0000e+00
      0.147      0.000     5.8544     52.141     46.392  33.269734     0.7411      8.398   119.1953 5.0987e+01     8.8863      0.144      0.209    10.8555 0.0000e+00
      0.147      0.000     5.8288     52.088     46.424  33.293223     0.7734      8.400   118.9401 5.0883e+01     8.9358      0.144      0.208    10.8534 0.0000e+00
      0.148      0.001     5.8036     52.128     46.420  33.289068     0.7999      8.402   118.6410 5.0761e+01     8.9192      0.145      0.210    10.8525 0.0000e+00
      0.148      0.001     5.7834     52.219     46.412  33.282937     0.7950      8.404   118.5036 5.0813e+01     8.8220      0.145      0.211    10.8532 0.0000e+00
      0.148      0.001     5.7644     52.326     46.412  33.282535     0.7729      8.407   118.5695 5.0795e+01     8.7520      0.145      0.211    10.8549 0.0000e+00
      0.148      0.000     5.7579     52.414     46.413  33.284210     0.7731      8.409   118.5765 5.0664e+01     8.7900      0.145      0.211    10.8556 0.0000e+00
      0.148     -0.001     5.7657     52.469     46.438  33.303185     0.7979      8.411   118.4165 5.0749e+01     8.9050      0.146      0.212    10.8542 0.0000e+00
      0.148     -0.001     5.7761     52.502     46.462  33.321630     0.8229      8.414   118.2710 5.1002e+01     8.9473      0.145      0.211    10.8527 0.0000e+00
      0.147      0.000     5.7900     52.490     46.455  33.316898     0.8257      8.417   118.2793 5.1159e+01     8.8571      0.144      0.209    10.8527 0.0000e+00
      0.147 -1.846e-08     5.8008     52.440     46.444  33.309407     0.8073      8.419   118.4304 5.0989e+01     8.8390      0.144      0.209    10.8539 0.0000e+00
      0.147 -2.031e-07     5.8042     52.379     46.423  33.294501     0.8088      8.421   118.5494 5.0704e+01     8.9675      0.144      0.209    10.8550 0.0000e+00
      0.148 -2.031e-07     5.8106     52.280     46.381  33.263561     0.8096      8.424   118.6862 5.0630e+01     9.0107      0.145      0.210    10.8560 0.0000e+00
      0.148 -1.846e-08     5.8086     52.120     46.367  33.252536     0.7841      8.426   118.8791 5.0695e+01     8.8822      0.145      0.210    10.8566 0.0000e+00
      0.148 -1.678e-09     5.8003     51.905     46.417  33.288085     0.7751      8.427   118.9021 5.0865e+01     8.7812      0.145      0.210    10.8569 0.0000e+00
      0.147 -1.526e-10     5.7964     51.668     46.452  33.312719     0.7916      8.430   118.7929 5.1026e+01     8.8147      0.144      0.209    10.8571 0.0000e+00
      0.147 -1.387e-11     5.7858     51.394     46.430  33.296600     0.8094      8.432   118.6774 5.0991e+01     8.9106      0.144      0.209    10.8565 0.0000e+00
      0.148 -1.261e-12     5.7690     51.039     46.414  33.283535     0.7995      8.434   118.5385 5.0844e+01     8.9163      0.145      0.210    10.8554 0.0000e+00
      0.148 -1.146e-13     5.7424     50.629     46.415  33.281635     0.7963      8.437   118.4038 5.0752e+01     8.9179      0.145      0.210    10.8548 0.0000e+00
      0.148 -1.043e-14     5.7164     50.214     46.409  33.273624     0.8298      8.439   118.2540 5.0739e+01     9.0326      0.145      0.210    10.8545 0.0000e+00
      0.147 -1.026e-15     5.6903     49.807     46.380  33.250115     0.8625      8.441   118.1035 5.0758e+01     9.1408      0.145      0.210    10.8542 0.0000e+00
      0.147 -9.552e-16     5.6488     49.428     46.383  33.251164     0.8844      8.443   118.0459 5.0755e+01     9.2019      0.143      0.208    10.8536 0.0000e+00
      0.147 -9.568e-15     5.6010     49.123     46.431  33.286298     0.8605      8.444   118.0744 5.0681e+01     9.1560      0.144      0.209    10.8503 0.0000e+00
      0.147 -1.052e-13     5.5561     48.891     46.441  33.294263     0.8067      8.446   118.1896 5.0633e+01     9.0980      0.144      0.209    10.8451 0.0000e+00
      0.147 -1.157e-12     5.5116     48.732     46.425  33.284019     0.7996      8.447   118.3211 5.0581e+01     9.1509      0.144      0.209    10.8420 0.0000e+00
      0.147 -1.272e-11     5.4658     48.645     46.431  33.289329     0.8164      8.450   118.2879 5.0422e+01     9.2145      0.144      0.209    10.8409 0.0000e+00
      0.147 -1.400e-10     5.4340     48.613     46.437  33.295017     0.8019      8.453   118.2177 5.0325e+01     9.1838      0.144      0.209    10.8417 0.0000e+00
      0.147 -1.540e-09     5.4074     48.637     46.427  33.289355     0.7663      8.456   118.2468 5.0382e+01     9.0183      0.144      0.209    10.8433 0.0000e+00
      0.146 -1.694e-08     5.3890     48.690     46.418  33.284315     0.7603      8.457   118.2093 5.0467e+01     8.9217      0.143      0.208    10.8446 0.0000e+00
      0.146 -1.863e-07     5.3814     48.760     46.438  33.297523     0.7877      8.458   118.1091 5.0651e+01     9.0057      0.143      0.208    10.8461 0.0000e+00
      0.146 -1.863e-07     5.3760     48.879     46.476  33.322162     0.7897      8.460   118.0670 5.0854e+01     9.0097      0.143      0.208    10.8466 0.0000e+00
      0.147 -1.663e-08     5.3808     49.059     46.489  33.328451     0.7680      8.461   117.9581 5.0699e+01     8.9362      0.144      0.209    10.8483 0.0000e+00
      0.147 1.8473e-09     5.3874     49.265     46.466  33.310109     0.7584      8.463   117.7392 5.0327e+01     8.9707      0.145      0.210    10.8508 0.0000e+00
      0.147 3.7115e-08     5.3924     49.484     46.440  33.290718     0.7644      8.466   117.5709 5.0191e+01     9.0853      0.144      0.209    10.8505 0.0000e+00
      0.147 4.0980e-07     5.4054     49.702     46.432  33.284327     0.7913      8.467   117.4726 5.0319e+01     9.2295      0.144      0.209    10.8466 0.0000e+00
      0.147      0.000     5.4286     49.894     46.448  33.296287     0.8004      8.469   117.3252 5.0385e+01     9.2449      0.144      0.209    10.8428 0.0000e+00
      0.146      0.000     5.4514     50.092     46.464  33.308436     0.7743      8.470   117.1652 5.0471e+01     9.1349      0.144      0.208    10.8411 0.0000e+00
      0.146      0.001     5.4755     50.323     46.456  33.304331     0.7582      8.473   117.0866 5.0687e+01     9.0609      0.143      0.208    10.8405 0.0000e+00
      0.147      0.001     5.5029     50.560     46.461  33.310098     0.7720      8.476   117.0628 5.0681e+01     9.0677      0.144      0.208    10.8399 0.0000e+00
      0.148      0.001     5.5209     50.783     46.464  33.314723     0.8000      8.478   117.1363 5.0528e+01     9.1140      0.145      0.210    10.8400 0.0000e+00
      0.148      0.001     5.5413     51.018     46.436  33.296806     0.8051      8.479   117.2008 5.0510e+01     9.0747      0.145      0.211    10.8407 0.0000e+00
      0.148      0.001     5.5687     51.275     46.416  33.283797     0.7844      8.482   117.1539 5.0633e+01     9.0359      0.145      0.211    10.8417 0.0000e+00
      0.148      0.001     5.5965     51.535     46.418  33.284326     0.7819      8.484   117.0855 5.0722e+01     9.1236      0.146      0.212    10.8443 0.0000e+00
      0.148      0.000     5.6184     51.788     46.446  33.303197     0.8093      8.486   117.0627 5.0478e+01     9.2476      0.145      0.211    10.8475 0.0000e+00
      0.148     -0.001     5.6432     52.013     46.471  33.321634     0.8325      8.488   117.1356 5.0125e+01     9.2365      0.145      0.211    10.8506 0.0000e+00
      0.148     -0.001     5.6735     52.197     46.462  33.316919     0.8206      8.489   117.1923 5.0124e+01     9.1261      0.145      0.211    10.8519 0.0000e+00
      0.148     -0.001     5.7012     52.325     46.449  33.309630     0.7824      8.491   117.2320 5.0201e+01     9.1079      0.145      0.210    10.8505 0.0000e+00
      0.147      0.000     5.7317     52.386     46.429  33.296951     0.7613      8.493   117.3579 5.0115e+01     9.0851      0.144      0.209    10.8492 0.0000e+00
      0.147 -1.862e-08     5.7561     52.396     46.419  33.290513     0.7741      8.495   117.5106 5.0047e+01     9.0560      0.145      0.210    10.8497 0.0000e+00
      0.147 -2.048e-07     5.7770     52.366     46.425  33.295237     0.7873      8.497   117.6146 5.0075e+01     9.0977      0.144      0.209    10.8517 0.0000e+00
      0.148 -2.051e-07     5.7923     52.306     46.419  33.290622     0.7803      8.498   117.5839 5.0226e+01     9.0766      0.145      0.210    10.8543 0.0000e+00
      0.148 -2.263e-08     5.7964     52.220     46.429  33.298157     0.7723      8.501   117.5693 5.0270e+01     9.0737      0.145      0.211    10.8561 0.0000e+00
      0.148 -4.589e-08     5.7984     52.157     46.463  33.322900     0.7814      8.503   117.6953 5.0210e+01     9.1655      0.146      0.211    10.8564 0.0000e+00
      0.148 -4.863e-07     5.7934     52.151     46.482  33.336004     0.7901      8.505   117.8175 5.0240e+01     9.1620      0.145      0.210    10.8562 0.0000e+00
      0.148     -0.000     5.7881     52.126     46.473  33.329707     0.7776      8.507   117.9290 5.0295e+01     9.0310      0.144      0.209    10.8564 0.0000e+00
      0.148      0.000     5.7766     52.089     46.445  33.310211     0.7646      8.508   118.0106 5.0276e+01     8.9472      0.145      0.210    10.8567 0.0000e+00
      0.148     -0.001     5.7646     52.108     46.418  33.290613     0.7575      8.509   118.0296 5.0176e+01     8.9347      0.145      0.210    10.8571 0.0000e+00
      0.148     -0.002     5.7720     52.116     46.409  33.283078     0.7505      8.512   117.9866 5.0208e+01     8.9483      0.145      0.211    10.8568 0.0000e+00
      0.148     -0.003     5.7681     52.030     46.410  33.282557     0.7380      8.513   117.8345 5.0415e+01     8.9063      0.145      0.211    10.8569 0.0000e+00
      0.147     -0.001     5.7577     51.938     46.413  33.284315     0.7138      8.514   117.7394 5.0545e+01     8.8029      0.145      0.211    10.8581 0.0000e+00
      0.145      0.005     5.7634     51.853     46.440  33.304328     0.7158      8.514   117.8691 5.0730e+01     8.8256      0.143      0.208    10.8577 0.0000e+00
      0.140      0.015     5.7735     51.747     46.481  33.334200     0.7623      8.511   118.0269 5.1120e+01     9.0103      0.136      0.198    10.8558 0.0000e+00
      0.140      0.024     5.7540     51.720     46.471  33.328277     0.8101      8.508   118.1839 5.0836e+01     9.1912      0.131      0.191    10.8546 0.0000e+00
      0.151      0.030     5.7437     51.750     46.425  33.296154     0.8110      8.504   118.4769 4.9377e+01     9.2020      0.144      0.208    10.8539 0.0000e+00
      0.171      0.034     5.7423     51.764     46.376  33.263029     0.7735      8.501   118.7300 4.7723e+01     9.0727      0.170      0.248    10.8540 0.0000e+00
      0.186      0.029     5.7174     51.786     46.347  33.244984     0.7563      8.498   118.9207 4.6467e+01     8.9948      0.186      0.271    10.8554 0.0000e+00
      0.192      0.007     5.7193     51.822     46.375  33.268304     0.7687      8.493   119.0628 4.5247e+01     8.9776      0.187      0.271    10.8566 0.0000e+00
      0.196     -0.037     5.7275     51.840     46.405  33.291220     0.7742      8.488   118.9856 4.4278e+01     8.9676      0.191      0.279    10.8576 0.0000e+00
      0.197     -0.093     5.7248     51.836     46.371  33.268290     0.7556      8.482   118.8474 4.5139e+01     8.9413      0.200      0.290    10.8596 0.0000e+00
      0.181     -0.148     5.7266     51.767     46.336  33.244836     0.7346      8.477   119.0268 4.9749e+01     8.8652      0.191      0.276    10.8631 0.0000e+00
      0.130     -0.192     5.7334     51.560     46.359  33.261425     0.7456      8.473   121.3268 6.0705e+01     8.8662      0.141      0.203    10.8660 0.0000e+00
      0.045     -0.219     5.7334     51.217     46.384  33.278533     0.7556      8.469   129.0177 7.7738e+01     8.8862      0.046      0.066    10.8680 0.0000e+00
     -0.045     -0.226     5.7336     50.787     46.361  33.261354     0.7473      8.466   134.3235 9.6790e+01     8.8334     -0.055     -0.081    10.8695 0.0000e+00
     -0.113     -0.211     5.7325     50.402     46.337  33.244050     0.7376      8.461   129.2100 1.1353e+02     8.8089     -0.121     -0.176    10.8712 0.0000e+00
     -0.155     -0.177     5.7060     50.161     46.358  33.259636     0.7374      8.454   123.2875 1.2676e+02     8.8633     -0.154     -0.224    10.8710 0.0000e+00
     -0.186     -0.133     5.6693     50.016     46.358  33.259476     0.7621      8.448   121.7380 1.3635e+02     8.9786     -0.184     -0.268    10.8700 0.0000e+00
     -0.211     -0.092     5.6150     49.986     46.336  33.242121     0.7699      8.447   121.0582 1.3908e+02     8.9725     -0.211     -0.306    10.8701 0.0000e+00
     -0.228     -0.062     5.5650     50.101     46.336  33.240116     0.7739      8.448   120.6609 1.3805e+02     8.8585     -0.224     -0.325    10.8684 0.0000e+00
     -0.240     -0.041     5.5466     50.274     46.332  33.235240     0.8095      8.450   120.3760 1.3793e+02     8.8291     -0.237     -0.345    10.8695 0.0000e+00
     -0.246     -0.025     5.5269     50.433     46.351  33.246606     0.8502      8.453   120.2809 1.3823e+02     8.8908     -0.244     -0.353    10.8703 0.0000e+00
     -0.246     -0.015     5.5200     50.519     46.361  33.250658     0.8837      8.456   120.7155 1.3853e+02     8.9898     -0.241     -0.350    10.8680 0.0000e+00
     -0.246     -0.008     5.5406     50.436     46.323  33.220781     0.8657      8.461   126.3186 1.3838e+02     9.0353     -0.240     -0.348    10.8659 0.0000e+00
     -0.246     -0.004     5.5611     50.159     46.303  33.202582     0.8062      8.467   136.5765 1.3819e+02     9.0318     -0.240     -0.348    10.8636 0.0000e+00
     -0.248     -0.002     5.5801     49.756     46.333  33.220938     0.7972      8.473   141.8395 1.3827e+02     9.0838     -0.243     -0.353    10.8616 0.0000e+00
     -0.249     -0.001     5.5958     49.292     46.382  33.252391     0.8238      8.479   141.8573 1.3817e+02     9.1854     -0.246     -0.357    10.8585 0.0000e+00
     -0.249      0.000     5.5887     48.816     46.405  33.265656     0.8282      8.487   141.4383 1.3801e+02     9.2006     -0.245     -0.355    10.8547 0.0000e+00
     -0.249      0.002     5.5538     48.359     46.393  33.254434     0.8085      8.493   140.8163 1.3814e+02     9.0975     -0.243     -0.353    10.8510 0.0000e+00
     -0.249      0.003     5.5078     47.929     46.380  33.243589     0.7774      8.496   140.1015 1.3829e+02     9.0662     -0.244     -0.354    10.8474 0.0000e+00
     -0.247      0.002     5.4550     47.541     46.408  33.261412     0.7764      8.499   139.6788 1.3824e+02     9.1641     -0.243     -0.352    10.8432 0.0000e+00
     -0.244      0.000     5.4014     47.216     46.438  33.279598     0.7883      8.502   139.2328 1.3816e+02     9.1873     -0.238     -0.346    10.8393 0.0000e+00
     -0.242     -0.002     5.3514     46.940     46.431  33.273140     0.7631      8.506   136.1721 1.3820e+02     9.0729     -0.237     -0.343    10.8369 0.0000e+00
     -0.245     -0.002     5.3031     46.682     46.393  33.246766     0.7306      8.509   133.3016 1.3837e+02     9.0109     -0.240     -0.348    10.8357 0.0000e+00
     -0.250      0.003     5.2595     46.459     46.345  33.214497     0.7195      8.512   135.4148 1.3862e+02     9.0864     -0.245     -0.355    10.8330 0.0000e+00
     -0.253      0.013     5.2240     46.313     46.324  33.200202     0.7275      8.515   137.2011 1.3878e+02     9.2013     -0.249     -0.360    10.8290 0.0000e+00
     -0.253      0.029     5.1966     46.304     46.328  33.200811     0.7362      8.515   135.5407 1.3818e+02     9.1703     -0.251     -0.363    10.8281 0.0000e+00
     -0.246      0.050     5.1658     46.468     46.361  33.221857     0.7249      8.514   131.6867 1.3594e+02     9.0188     -0.245     -0.356    10.8287 0.0000e+00
     -0.229      0.071     5.1401     46.768     46.421  33.264334     0.7073      8.510   126.6532 1.3166e+02     8.9755     -0.226     -0.328    10.8316 0.0000e+00
     -0.205      0.088     5.1209     47.178     46.426  33.270282     0.7073      8.504   123.8952 1.1781e+02     9.0558     -0.202     -0.292    10.8341 0.0000e+00
     -0.175      0.097     5.1173     47.671     46.364  33.230337     0.7410      8.498   123.6367 9.8380e+01     8.8965     -0.173     -0.251    10.8299 0.0000e+00
     -0.142      0.098     5.1402     48.192     46.351  33.225469     0.7745      8.494   126.7107 8.9064e+01     8.3480     -0.139     -0.201    10.8250 0.0000e+00
     -0.111      0.094     5.1729     48.685     46.411  33.274872     0.7705      8.492   129.8302 8.4645e+01     7.9227     -0.105     -0.152    10.8250 0.0000e+00
     -0.090      0.089     5.2189     49.116     46.464  33.320113     0.7759      8.493   127.1963 7.9653e+01     7.8541     -0.085     -0.122    10.8289 0.0000e+00
     -0.075      0.083     5.2755     49.490     46.465  33.328386     0.7893      8.495   123.9459 7.5997e+01     7.7235     -0.075     -0.108    10.8340 0.0000e+00
     -0.060      0.074     5.3341     49.727     46.432  33.311462     0.7747      8.496   123.4834 7.0977e+01     7.3685     -0.062     -0.089    10.8383 0.0000e+00
     -0.040      0.064     5.3909     49.764     46.416  33.305818     0.7489      8.498   123.4100 6.3844e+01     7.0791     -0.041     -0.060    10.8449 0.0000e+00
     -0.016      0.055     5.4346     49.761     46.433  33.323604     0.7190      8.500   123.3170 5.6398e+01     6.9241     -0.014     -0.022    10.8540 0.0000e+00
      0.003      0.048     5.4783     49.868     46.445  33.336188     0.7210      8.501   123.2191 5.2989e+01     6.9299      0.009      0.013    10.8617 0.0000e+00
      0.009      0.040     5.5117     50.049     46.434  33.331082     0.7562      8.503   123.0010 5.4016e+01     7.0807      0.012      0.019    10.8685 0.0000e+00
      0.008      0.030     5.5037     50.306     46.422  33.325309     0.7618      8.505   122.6581 5.6000e+01     7.1072      0.005      0.008    10.8753 0.0000e+00
      0.012      0.017     5.4938     50.715     46.425  33.329837     0.7396      8.506   122.5154 5.7492e+01     6.9770      0.008      0.011    10.8814 0.0000e+00
      0.023      0.009     5.5118     51.267     46.413  33.322395     0.7369      8.507   122.4796 5.8748e+01     7.0097      0.025      0.036    10.8855 0.0000e+00
      0.031      0.011     5.5309     51.877     46.378  33.298771     0.7547      8.508   122.3977 6.0154e+01     7.2629      0.035      0.051    10.8880 0.0000e+00
      0.027      0.023     5.5532     52.432     46.375  33.297981     0.7543      8.511   122.3856 6.1580e+01     7.3401      0.030      0.043    10.8915 0.0000e+00
      0.017      0.042     5.5990     52.815     46.397  33.312839     0.7489      8.513   122.4194 6.1356e+01     7.2266      0.013      0.019    10.8944 0.0000e+00
      0.017      0.065     5.6643     52.965     46.368  33.288082     0.7474      8.514   122.6340 5.8840e+01     7.1539      0.006      0.010    10.8959 0.0000e+00
      0.041      0.089     5.7350     52.880     46.325  33.252417     0.7452      8.514   123.0885 5.5521e+01     7.1778      0.033      0.048    10.8967 0.0000e+00
      0.082      0.109     5.8022     52.597     46.345  33.262279     0.7640      8.515   123.5262 5.1445e+01     7.3114      0.079      0.114    10.8981 0.0000e+00
      0.127      0.121     5.8465     52.213     46.375  33.280427     0.7585      8.515   123.7963 4.7537e+01     7.3346      0.127      0.185    10.8989 0.0000e+00
      0.166      0.125     5.8629     51.823     46.376  33.281510     0.7200      8.514   123.9455 4.5385e+01     7.1851      0.168      0.244    10.8940 0.0000e+00
      0.194      0.122     5.8544     51.474     46.361  33.275368     0.7069      8.514   124.1247 4.4433e+01     7.1087      0.195      0.283    10.8871 0.0000e+00
      0.212      0.114     5.8190     51.206     46.346  33.269614     0.7242      8.514   124.4148 4.3357e+01     7.1964      0.206      0.298    10.8818 0.0000e+00
      0.235      0.107     5.7723     51.079     46.351  33.275394     0.7461      8.516   124.7003 4.1078e+01     7.3231      0.223      0.323    10.8784 0.0000e+00
      0.268      0.102     5.7286     51.129     46.360  33.281795     0.7388      8.519   124.8227 3.8450e+01     7.3076      0.265      0.383    10.8784 0.0000e+00
      0.300      0.097     5.6881     51.336     46.362  33.283564     0.7111      8.521   124.7770 3.6726e+01     7.2148      0.299      0.433    10.8839 0.0000e+00
      0.325      0.091     5.6542     51.612     46.379  33.296782     0.7108      8.523   124.8357 3.5354e+01     7.2268      0.319      0.464    10.8912 0.0000e+00
      0.346      0.081     5.6388     51.833     46.402  33.314728     0.7347      8.525   125.0155 3.3959e+01     7.3158      0.339      0.492    10.8928 0.0000e+00
      0.366      0.070     5.6449     51.941     46.393  33.310219     0.7502      8.528   125.1445 3.2943e+01     7.4023      0.361      0.523    10.8919 0.0000e+00
      0.380      0.065     5.6708     51.948     46.384  33.305710     0.7402      8.532   125.3634 3.2383e+01     7.3845      0.376      0.545    10.8923 0.0000e+00
      0.390      0.067     5.7080     51.868     46.407  33.323656     0.7217      8.534   125.6833 3.1894e+01     7.2713      0.383      0.555    10.8933 0.0000e+00
      0.401      0.076     5.7341     51.723     46.424  33.336875     0.7352      8.536   126.0004 3.1111e+01     7.2289      0.390      0.567    10.8954 0.0000e+00
      0.418      0.087     5.7439     51.566     46.425  33.338645     0.7622      8.537   126.2725 2.9924e+01     7.2132      0.407      0.590    10.8978 0.0000e+00
      0.444      0.098     5.7446     51.491     46.432  33.345055     0.7646      8.538   126.5645 2.8448e+01     7.1497      0.434      0.628    10.8996 0.0000e+00
      0.478      0.107     5.7346     51.566     46.438  33.350937     0.7473      8.540   126.8631 2.6919e+01     7.1110      0.468      0.678    10.9010 0.0000e+00
      0.513      0.110     5.7170     51.829     46.428  33.346324     0.7279      8.542   127.0442 2.5502e+01     7.1554      0.505      0.733    10.9020 0.0000e+00
      0.545      0.107     5.6948     52.289     46.433  33.352724     0.7295      8.545   127.1192 2.4441e+01     7.2761      0.537      0.780    10.9029 0.0000e+00
      0.571      0.100     5.6836     52.880     46.447  33.364883     0.7510      8.547   127.0808 2.3675e+01     7.3066      0.561      0.813    10.9043 0.0000e+00
      0.591      0.095     5.6910     53.528     46.446  33.366452     0.7547      8.548   127.0103 2.2987e+01     7.2504      0.580      0.841    10.9066 0.0000e+00
      0.610      0.095     5.7176     54.190     46.450  33.371691     0.7318      8.549   126.9552 2.2300e+01     7.2800      0.598      0.868    10.9093 0.0000e+00
      0.630      0.101     5.7722     54.810     46.438  33.364788     0.7162      8.549   126.8454 2.1606e+01     7.3912      0.617      0.896    10.9119 0.0000e+00
      0.654      0.110     5.8406     55.330     46.410  33.346437     0.7242      8.548   126.8872 2.0772e+01     7.5363      0.637      0.924    10.9146 0.0000e+00
      0.684      0.120     5.9120     55.723     46.400  33.340140     0.7369      8.547   127.2015 1.9673e+01     7.4976      0.667      0.968    10.9170 0.0000e+00
      0.722      0.128     5.9876     55.975     46.415  33.352099     0.7363      8.547   127.4620 1.8575e+01     7.2650      0.708      1.028    10.9195 0.0000e+00
      0.760      0.132     6.0587     56.111     46.430  33.364144     0.7415      8.548   127.6280 1.7648e+01     7.2174      0.747      1.083    10.9223 0.0000e+00
      0.795      0.129     6.1158     56.174     46.422  33.358887     0.7505      8.548   127.8321 1.6802e+01     7.3319      0.781      1.132    10.9237 0.0000e+00
      0.829      0.119     6.1607     56.166     46.412  33.351975     0.7452      8.549   127.9507 1.6025e+01     7.3510      0.813      1.177    10.9245 0.0000e+00
      0.860      0.106     6.1872     56.113     46.401  33.344024     0.7356      8.551   128.0302 1.5342e+01     7.2774      0.845      1.225    10.9257 0.0000e+00
      0.887      0.096     6.1990     56.058     46.377  33.326194     0.7253      8.554   128.1054 1.4819e+01     7.1939      0.874      1.268    10.9265 0.0000e+00
      0.906      0.091     6.2076     55.997     46.380  33.326713     0.7292      8.555   128.2577 1.4502e+01     7.1953      0.892      1.292    10.9273 0.0000e+00
      0.920      0.090     6.2053     55.951     46.416  33.350293     0.7417      8.556   128.5808 1.4229e+01     7.2267      0.902      1.308    10.9279 0.0000e+00
      0.938      0.091     6.1959     55.962     46.429  33.357525     0.7510      8.558   128.8278 1.3790e+01     7.1976      0.915      1.328    10.9282 0.0000e+00
      0.964      0.093     6.1923     55.998     46.421  33.350708     0.7505      8.560   128.9219 1.3208e+01     7.1841      0.942      1.367    10.9273 0.0000e+00
      0.995      0.097     6.1848     56.008     46.396  33.331317     0.7274      8.561   129.0301 1.2680e+01     7.1666      0.978      1.419    10.9251 0.0000e+00
      1.024      0.100     6.1767     55.997     46.371  33.313400     0.7218      8.562   129.1032 1.2281e+01     7.1908      1.006      1.460    10.9222 0.0000e+00
      1.048      0.100     6.1803     55.971     46.387  33.324407     0.7323      8.564   129.1173 1.1915e+01     7.2369      1.028      1.491    10.9195 0.0000e+00
      1.072      0.100     6.1881     55.930     46.405  33.337511     0.7208      8.564   129.1999 1.1571e+01     7.1784      1.052      1.525    10.9186 0.0000e+00
      1.094      0.100     6.1874     55.904     46.415  33.344953     0.7073      8.565   129.3280 1.1247e+01     7.1314      1.073      1.556    10.9183 0.0000e+00
      1.118      0.104     6.1861     55.889     46.422  33.350938     0.7107      8.567   129.4611 1.0866e+01     7.1474      1.094      1.588    10.9174 0.0000e+00
      1.145      0.109     6.1850     55.886     46.414  33.346429     0.7292      8.567   129.6055 1.0454e+01     7.2017      1.122      1.628    10.9170 0.0000e+00
      1.175      0.113     6.1767     55.924     46.421  33.353879     0.7392      8.568   129.7830 1.0074e+01     7.2406      1.151      1.670    10.9170 0.0000e+00
      1.206      0.115     6.1758     56.015     46.451  33.377582     0.7244      8.569   129.8870 9.7088e+00     7.1742      1.182      1.715    10.9170 0.0000e+00
      1.238      0.113     6.1739     56.135     46.451  33.379246     0.7240      8.570   129.9161 9.3427e+00     7.1499      1.214      1.761    10.9181 0.0000e+00
      1.269      0.109     6.1713     56.258     46.443  33.373999     0.7512      8.570   130.1346 8.9941e+00     7.2548      1.246      1.808    10.9206 0.0000e+00
      1.297      0.106     6.1747     56.394     46.448  33.377575     0.7706      8.572   130.4643 8.7158e+00     7.3491      1.275      1.849    10.9233 0.0000e+00
      1.320      0.106     6.1853     56.533     46.425  33.359038     0.7586      8.575   130.6333 8.5135e+00     7.3345      1.295      1.878    10.9258 0.0000e+00
      1.341      0.108     6.2009     56.629     46.401  33.340205     0.7224      8.576   130.7158 8.2855e+00     7.2490      1.312      1.903    10.9276 0.0000e+00
      1.366      0.113     6.2120     56.698     46.404  33.340194     0.6906      8.576   130.8587 7.9884e+00     7.3056      1.337      1.939    10.9283 0.0000e+00
      1.398      0.115     6.2276     56.780     46.435  33.358903     0.6739      8.578   130.9852 7.6601e+00     7.5060      1.369      1.986    10.9276 0.0000e+00
      1.434      0.114     6.2464     56.842     46.465  33.376079     0.6705      8.581   131.0399 7.3358e+00     7.5884      1.406      2.040    10.9254 0.0000e+00
      1.470      0.108     6.2569     56.864     46.447  33.357527     0.6574      8.581   131.0904 7.0570e+00     7.5496      1.443      2.092    10.9234 0.0000e+00
      1.500      0.098     6.2603     56.861     46.407  33.324918     0.5995      8.583   131.2516 6.8641e+00     7.5161      1.474      2.137    10.9219 0.0000e+00
      1.521      0.087     6.2738     56.837     46.375  33.299021     0.5364      8.585   131.4409 6.7443e+00     7.5589      1.495      2.169    10.9185 0.0000e+00
      1.536      0.077     6.2822     56.794     46.375  33.298180     0.5273      8.586   131.5719 6.6451e+00     7.6232      1.506      2.184    10.9128 0.0000e+00
      1.549      0.068     6.2832     56.721     46.399  33.314745     0.5385      8.589   131.7172 6.5318e+00     7.6098      1.517      2.201    10.9065 0.0000e+00
      1.565      0.060     6.2854     56.617     46.393  33.308976     0.5143      8.591   131.8205 6.4015e+00     7.5343      1.535      2.225    10.9016 0.0000e+00
      1.584      0.055     6.2810     56.476     46.371  33.291872     0.4680      8.593   131.7883 6.2736e+00     7.5297      1.554      2.253    10.8994 0.0000e+00
      1.601      0.054     6.2787     56.308     46.379  33.298272     0.4613      8.595   131.7579 6.1702e+00     7.6237      1.572      2.279    10.8988 0.0000e+00
      1.612      0.057     6.2693     56.137     46.413  33.322922     0.4905      8.596   131.8837 6.1163e+00     7.5775      1.584      2.297    10.8977 0.0000e+00
      1.619      0.063     6.2590     55.974     46.432  33.336130     0.4880      8.598   131.9328 6.0819e+00     7.4487      1.586      2.300    10.8960 0.0000e+00
      1.629      0.073     6.2439     55.867     46.427  33.331081     0.4481      8.600   131.8343 5.9816e+00     7.4659      1.592      2.309    10.8948 0.0000e+00
      1.650      0.085     6.2224     55.831     46.423  33.325312     0.4170      8.600   131.8120 5.8104e+00     7.6147      1.615      2.343    10.8950 0.0000e+00
      1.678      0.096     6.2058     55.833     46.437  33.329817     0.4113      8.600   131.9220 5.6193e+00     7.7455      1.645      2.386    10.8956 0.0000e+00
      1.709      0.106     6.1835     55.865     46.435  33.322106     0.4120      8.599   131.9591 5.4123e+00     7.7493      1.674      2.427    10.8953 0.0000e+00
      1.741      0.113     6.1714     55.918     46.407  33.295507     0.4252      8.599   131.7447 5.2163e+00     8.1737      1.709      2.478    10.8942 0.0000e+00
      1.770      0.118     6.1708     55.958     46.370  33.261983     0.4790      8.600   131.3939 5.0713e+00     9.1872      1.740      2.523    10.8914 0.0000e+00
      1.794      0.118     6.1709     55.971     46.348  33.233981     0.5801      8.600   131.1592 4.9166e+00    10.0292      1.758      2.550    10.8849 0.0000e+00
      1.824      0.114     6.1760     55.960     46.346  33.210696     1.0654      8.599   131.1441 4.6937e+00    12.0692      1.783      2.588    10.8774 0.0000e+00
      1.859      0.106     6.1848     55.904     46.335  33.170757     6.1051      8.597   131.1249 4.4759e+00    32.7244      1.824      2.646    10.8693 0.0000e+00
      1.893      0.096     6.1909     55.798     46.337  33.131715    15.3461      8.597   131.0139 4.3290e+00    70.5269      1.860      2.698    10.8645 0.0000e+00
      1.918      0.084     6.1923     55.663     46.374  33.119258    20.3781      8.598   130.9205 4.2270e+00    91.1270      1.883      2.732    10.8541 0.0000e+00
      1.935      0.070     6.1966     55.513     46.455  33.146983    20.4289      8.601   130.8555 4.1479e+00    92.1120      1.898      2.755    10.8304 0.0000e+00
      1.945      0.056     6.1953     55.375     46.577  33.213136    15.5521      8.603   130.7441 4.0781e+00    81.2062      1.907      2.767    10.7968 0.0000e+00
      1.955      0.044     6.1887     55.275     46.696  33.284647     6.4912      8.605   130.6928 4.0007e+00    60.7193      1.917      2.779    10.7472 0.0000e+00
      1.966      0.036     6.1810     55.189     46.741  33.313720     1.5208      8.607   130.9231 3.9292e+00    49.4316      1.928      2.796    10.7016 0.0000e+00
      1.976      0.033     6.1676     55.143     46.736  33.310877     1.0911      8.608   131.1201 3.8842e+00    48.4359      1.938      2.811    10.6709 0.0000e+00
      1.983 -9.990e-29     6.1525 -9.990e-29 -9.990e-29 -9.990e-29 -9.990e-29 -9.990e-29 -9.990e-29 3.8548e+00 -9.990e-29      1.947      2.823    10.6483 0.0000e+00
      1.988 -9.990e-29     6.1471 -9.990e-29 -9.990e-29 -9.990e-29 -9.990e-29 -9.990e-29 -9.990e-29 3.8284e+00 -9.990e-29      1.950      2.829    10.6332 0.0000e+00
      1.990 -9.990e-29     6.1370 -9.990e-29 -9.990e-29 -9.990e-29 -9.990e-29 -9.990e-29 -9.990e-29 3.8151e+00 -9.990e-29      1.952      2.831    10.6321 0.0000e+00
      1.990 -9.990e-29     6.1250 -9.990e-29 -9.990e-29 -9.990e-29 -9.990e-29 -9.990e-29 -9.990e-29 3.8135e+00 -9.990e-29      1.953      2.832    10.6374 0.0000e+00
