* Sea-Bird SBE19plus  Data File:
* FileName = C:\R\Reservoirs\Data\DataNotYetUploadedToEDI\Raw_CTD\RawDownloads\102725_fcr50_S7809_0007.hex
* Software version 2.8.0.119
* Temperature SN = 7809
* Conductivity SN = 7809
* System UpLoad Time = Nov 13 2025 15:24:56
* <ApplicationData>
* <Seaterm232>
* <SoftwareVersion>2.8.0.119</SoftwareVersion>
* <BuildDate>07-Nov-2018</BuildDate>
* </Seaterm232>
* </ApplicationData>
* <InstrumentState>
* <HardwareData DeviceType='SBE19plus' SerialNumber='01907809'>
*
*    <Manufacturer>Sea-Bird Electronics, Inc.</Manufacturer>
*
*    <FirmwareVersion>3.1.8</FirmwareVersion>
*
*    <FirmwareDate>Mar  9 2016 16:22:29</FirmwareDate>
*
*    <CommandSetVersion>1.4</CommandSetVersion>
*
*    <PCBAssembly PCBSerialNum='120721' AssemblyNum='41054J'/>
*
*    <PCBAssembly PCBSerialNum='120715' AssemblyNum='41967A'/>
*
*    <PCBAssembly PCBSerialNum='116699' AssemblyNum='41606'/>
*
*    <PCBAssembly PCBSerialNum='120719' AssemblyNum='41059D'/>
*
*    <MfgDate>28-Apr-2017</MfgDate>
*
*    <InternalSensors>
*
*       <Sensor id='Main Temperature'>
*
*          <type>temperature0</type>
*
*          <SerialNumber>01907809</SerialNumber>
*
*       </Sensor>
*
*       <Sensor id='Main Conductivity'>
*
*          <type>conductivity-0</type>
*
*          <SerialNumber>01907809</SerialNumber>
*
*       </Sensor>
*
*       <Sensor id='Main Pressure'>
*
*          <type>strain-0</type>
*
*          <SerialNumber>10586018</SerialNumber>
*
*       </Sensor>
*
*    </InternalSensors>
*
*    <ExternalSensors>
*
*       <Sensor id='volt 0'>
*
*          <type>pH</type>
*
*          <SerialNumber>27-0363</SerialNumber>
*
*       </Sensor>
*
*       <Sensor id='volt 1'>
*
*          <type>ORP</type>
*
*          <SerialNumber>27-0363</SerialNumber>
*
*       </Sensor>
*
*       <Sensor id='volt 2'>
*
*          <type>OXY</type>
*
*          <SerialNumber>43-0434</SerialNumber>
*
*       </Sensor>
*
*       <Sensor id='volt 3'>
*
*          <type>PAR</type>
*
*          <SerialNumber>1122</SerialNumber>
*
*       </Sensor>
*
*       <Sensor id='volt 4'>
*
*          <type>ECO AFL/FL</type>
*
*          <SerialNumber>FLNTURT-2496</SerialNumber>
*
*       </Sensor>
*
*       <Sensor id='volt 5'>
*
*          <type>ECO-NTU</type>
*
*          <SerialNumber>FLNTURT-2496</SerialNumber>
*
*       </Sensor>
*
*       <Sensor id='serial'>
*
*          <type>not assigned</type>
*
*          <SerialNumber>not assigned</SerialNumber>
*
*       </Sensor>
*
*    </ExternalSensors>
*
* </HardwareData>
* <StatusData DeviceType='SBE19plus' SerialNumber='01907809'>
*
*    <DateTime>2025-11-13T16:20:09</DateTime>
*
*    <LoggingState>not logging</LoggingState>
*
*    <EventSummary numEvents='0'/>
*
*    <Power>
*
*       <vMain>11.8</vMain>
*
*       <vLith>8.3</vLith>
*
*       <iMain>63.0</iMain>
*
*       <iPump>198.1</iPump>
*
*       <iExt01>22.0</iExt01>
*
*       <iExt2345>41.3</iExt2345>
*
*    </Power>
*
*    <MemorySummary>
*
*       <Bytes>229931</Bytes>
*
*       <Samples>9997</Samples>
*
*       <SamplesFree>2850791</SamplesFree>
*
*       <SampleLength>23</SampleLength>
*
*       <Profiles>7</Profiles>
*
*    </MemorySummary>
*
* </StatusData>
* <ConfigurationData DeviceType='SBE19plus' SerialNumber='01907809'>
*
*    <ProfileMode>
*
*       <ScansToAverage>1</ScansToAverage>
*
*       <MinimumCondFreq>0</MinimumCondFreq>
*
*       <PumpDelay>45</PumpDelay>
*
*       <AutoRun>no</AutoRun>
*
*       <IgnoreSwitch>no</IgnoreSwitch>
*
*    </ProfileMode>
*
*    <Battery>
*
*       <Type>alkaline</Type>
*
*       <CutOff>7.5</CutOff>
*
*    </Battery>
*
*    <DataChannels>
*
*       <ExtVolt0>yes</ExtVolt0>
*
*       <ExtVolt1>yes</ExtVolt1>
*
*       <ExtVolt2>yes</ExtVolt2>
*
*       <ExtVolt3>yes</ExtVolt3>
*
*       <ExtVolt4>yes</ExtVolt4>
*
*       <ExtVolt5>yes</ExtVolt5>
*
*       <SBE38>no</SBE38>
*
*       <WETLABS>no</WETLABS>
*
*       <OPTODE>no</OPTODE>
*
*       <SBE63>no</SBE63>
*
*       <SeaFET>no</SeaFET>
*
*       <GTD>no</GTD>
*
*    </DataChannels>
*
*    <EchoCharacters>yes</EchoCharacters>
*
*    <OutputExecutedTag>yes</OutputExecutedTag>
*
*    <OutputFormat>raw HEX</OutputFormat>
*
* </ConfigurationData>
* <CalibrationCoefficients DeviceType='SBE19plus' SerialNumber='01907809'>
*
*    <Calibration format='TEMP1' id='Main Temperature'>
*
*       <SerialNum>01907809</SerialNum>
*
*       <CalDate>31-Jan-23</CalDate>
*
*       <TA0>1.218232e-03</TA0>
*
*       <TA1>2.815090e-04</TA1>
*
*       <TA2>-1.578887e-06</TA2>
*
*       <TA3>1.972343e-07</TA3>
*
*       <TOFFSET>0.000000e+00</TOFFSET>
*
*    </Calibration>
*
*    <Calibration format='WBCOND0' id='Main Conductivity'>
*
*       <SerialNum>01907809</SerialNum>
*
*       <CalDate>31-Jan-23</CalDate>
*
*       <G>-1.005652e+00</G>
*
*       <H>1.267963e-01</H>
*
*       <I>-1.561708e-04</I>
*
*       <J>2.645944e-05</J>
*
*       <CPCOR>-9.570000e-08</CPCOR>
*
*       <CTCOR>3.250000e-06</CTCOR>
*
*       <CSLOPE>1.000000e+00</CSLOPE>
*
*    </Calibration>
*
*    <Calibration format='STRAIN0' id='Main Pressure'>
*
*       <SerialNum>10586018</SerialNum>
*
*       <CalDate>20-Jan-23</CalDate>
*
*       <PA0>4.416439e-02</PA0>
*
*       <PA1>4.850502e-04</PA1>
*
*       <PA2>-3.090426e-12</PA2>
*
*       <PTCA0>5.254757e+05</PTCA0>
*
*       <PTCA1>1.050255e+01</PTCA1>
*
*       <PTCA2>-2.922435e-01</PTCA2>
*
*       <PTCB0>2.516687e+01</PTCB0>
*
*       <PTCB1>3.750000e-04</PTCB1>
*
*       <PTCB2>0.000000e+00</PTCB2>
*
*       <PTEMPA0>-5.470820e+01</PTEMPA0>
*
*       <PTEMPA1>5.485421e+01</PTEMPA1>
*
*       <PTEMPA2>-3.446578e-01</PTEMPA2>
*
*       <POFFSET>8.500000e-01</POFFSET>
*
*       <PRANGE>1.600000e+02</PRANGE>
*
*    </Calibration>
*
*    <Calibration format='VOLT0' id='Volt 0'>
*
*       <OFFSET>-4.920000e-02</OFFSET>
*
*       <SLOPE>1.248122e+00</SLOPE>
*
*    </Calibration>
*
*    <Calibration format='VOLT0' id='Volt 1'>
*
*       <OFFSET>-4.784000e-02</OFFSET>
*
*       <SLOPE>1.248871e+00</SLOPE>
*
*    </Calibration>
*
*    <Calibration format='VOLT0' id='Volt 2'>
*
*       <OFFSET>-4.864632e-02</OFFSET>
*
*       <SLOPE>1.248714e+00</SLOPE>
*
*    </Calibration>
*
*    <Calibration format='VOLT0' id='Volt 3'>
*
*       <OFFSET>-4.743790e-02</OFFSET>
*
*       <SLOPE>1.248571e+00</SLOPE>
*
*    </Calibration>
*
*    <Calibration format='VOLT0' id='Volt 4'>
*
*       <OFFSET>-4.671263e-02</OFFSET>
*
*       <SLOPE>1.248951e+00</SLOPE>
*
*    </Calibration>
*
*    <Calibration format='VOLT0' id='Volt 5'>
*
*       <OFFSET>-4.871053e-02</OFFSET>
*
*       <SLOPE>1.249136e+00</SLOPE>
*
*    </Calibration>
*
*    <Calibration format='FREQ0' id='external frequency channel'>
*
*       <EXTFREQSF>1.000014e+00</EXTFREQSF>
*
*    </Calibration>
*
* </CalibrationCoefficients>
* <EventCounters DeviceType='SBE19plus' SerialNumber='01907809'>
*
*    <EventSummary numEvents='0'/>
*
* </EventCounters></InstrumentState>
* <Headers>
*
* cast   7 10 Nov 2025 15:33:25 samples 8906 to 9997, avg = 1, stop = mag switch
*
# nquan = 15
# nvalues = 986                         
# units = specified
# name 0 = depFM: Depth [fresh water, m]
# name 1 = dz/dtM: Descent Rate [m/s]
# name 2 = sbeox0Mg/L: Oxygen, SBE 43 [mg/l]
# name 3 = sbeox0PS: Oxygen, SBE 43 [% saturation]
# name 4 = specc: Specific Conductance [uS/cm]
# name 5 = c0uS/cm: Conductivity [uS/cm]
# name 6 = flECO-AFL: Fluorescence, WET Labs ECO-AFL/FL [mg/m^3]
# name 7 = ph: pH
# name 8 = orp: Oxidation Reduction Potential [mV]
# name 9 = par/sat/log: PAR/Logarithmic, Satlantic
# name 10 = turbWETntu0: Turbidity, WET Labs ECO [NTU]
# name 11 = prdM: Pressure, Strain Gauge [db]
# name 12 = prdE: Pressure, Strain Gauge [psi]
# name 13 = tv290C: Temperature [ITS-90, deg C]
# name 14 = flag:  0.000e+00
# span 0 =     -0.730,      5.805       
# span 1 =     -0.172,      0.262       
# span 2 =     5.1369,    10.3986       
# span 3 =     46.873,     90.965       
# span 4 =      4.755,    173.551       
# span 5 =   3.187843, 125.838514       
# span 6 =    -0.1022,     2.2941       
# span 7 =      8.245,      9.102       
# span 8 =    -2.6412,  1012.5279       
# span 9 = 1.2373e-01, 3.1676e+02       
# span 10 =    -0.2195,   179.0224      
# span 11 =     -0.716,      5.693      
# span 12 =     -1.038,      8.258      
# span 13 =     8.4818,    11.5555      
# span 14 = 0.0000e+00, 0.0000e+00      
# interval = seconds: 0.25
# start_time = Nov 10 2025 15:33:25 [Instrument's time stamp, header]
# bad_flag = -9.990e-29
# <Sensors count="9" >
#   <sensor Channel="1" >
#     <!-- Count, Temperature -->
#     <TemperatureSensor SensorID="58" >
#       <SerialNumber>7809</SerialNumber>
#       <CalibrationDate>31-Jan-23</CalibrationDate>
#       <A0>1.21823180e-003</A0>
#       <A1>2.81508993e-004</A1>
#       <A2>-1.57888696e-006</A2>
#       <A3>1.97234302e-007</A3>
#       <Slope>1.00000000</Slope>
#       <Offset>0.0000</Offset>
#     </TemperatureSensor>
#   </sensor>
#   <sensor Channel="2" >
#     <!-- Frequency 0, Conductivity -->
#     <ConductivitySensor SensorID="3" >
#       <SerialNumber>7809</SerialNumber>
#       <CalibrationDate>31-Jan-23</CalibrationDate>
#       <UseG_J>1</UseG_J>
#       <!-- Cell const and series R are applicable only for wide range sensors. -->
#       <SeriesR>0.0000</SeriesR>
#       <CellConst>2000.0000</CellConst>
#       <ConductivityType>0</ConductivityType>
#       <Coefficients equation="0" >
#         <A>0.00000000e+000</A>
#         <B>0.00000000e+000</B>
#         <C>0.00000000e+000</C>
#         <D>0.00000000e+000</D>
#         <M>0.0</M>
#         <CPcor>-9.57000000e-008</CPcor>
#       </Coefficients>
#       <Coefficients equation="1" >
#         <G>-1.00565232e+000</G>
#         <H>1.26796307e-001</H>
#         <I>-1.56170788e-004</I>
#         <J>2.64594368e-005</J>
#         <CPcor>-9.57000000e-008</CPcor>
#         <CTcor>3.2500e-006</CTcor>
#         <!-- WBOTC not applicable unless ConductivityType = 1. -->
#         <WBOTC>0.00000000e+000</WBOTC>
#       </Coefficients>
#       <Slope>1.00000000</Slope>
#       <Offset>0.00000</Offset>
#     </ConductivitySensor>
#   </sensor>
#   <sensor Channel="3" >
#     <!-- Count, Pressure, Strain Gauge -->
#     <PressureSensor SensorID="46" >
#       <SerialNumber>7809</SerialNumber>
#       <CalibrationDate>20-Jan-23</CalibrationDate>
#       <PA0>4.41643944e-002</PA0>
#       <PA1>4.85050239e-004</PA1>
#       <PA2>-3.09042623e-012</PA2>
#       <PTEMPA0>-5.47081996e+001</PTEMPA0>
#       <PTEMPA1>5.48542136e+001</PTEMPA1>
#       <PTEMPA2>-3.44657813e-001</PTEMPA2>
#       <PTCA0>5.25475731e+005</PTCA0>
#       <PTCA1>1.05025484e+001</PTCA1>
#       <PTCA2>-2.92243463e-001</PTCA2>
#       <PTCB0>2.51668750e+001</PTCB0>
#       <PTCB1>3.75000000e-004</PTCB1>
#       <PTCB2>0.00000000e+000</PTCB2>
#       <Offset>0.000000</Offset>
#     </PressureSensor>
#   </sensor>
#   <sensor Channel="4" >
#     <!-- A/D voltage 0, Oxygen, SBE 43 -->
#     <OxygenSensor SensorID="38" >
#       <SerialNumber>0434</SerialNumber>
#       <CalibrationDate>18-Feb-23</CalibrationDate>
#       <Use2007Equation>1</Use2007Equation>
#       <CalibrationCoefficients equation="0" >
#         <!-- Coefficients for Owens-Millard equation. -->
#         <Boc>0.0000</Boc>
#         <Soc>0.0000e+000</Soc>
#         <offset>0.0000</offset>
#         <Pcor>0.00e+000</Pcor>
#         <Tcor>0.0000</Tcor>
#         <Tau>0.0</Tau>
#       </CalibrationCoefficients>
#       <CalibrationCoefficients equation="1" >
#         <!-- Coefficients for Sea-Bird equation - SBE calibration in 2007 and later. -->
#         <Soc>5.1878e-001</Soc>
#         <offset>-0.5046</offset>
#         <A>-4.2788e-003</A>
#         <B> 1.5372e-004</B>
#         <C>-2.1853e-006</C>
#         <D0> 2.5826e+000</D0>
#         <D1> 1.92634e-004</D1>
#         <D2>-4.64803e-002</D2>
#         <E> 3.6000e-002</E>
#         <Tau20> 0.9900</Tau20>
#         <H1>-3.3000e-002</H1>
#         <H2> 5.0000e+003</H2>
#         <H3> 1.4500e+003</H3>
#       </CalibrationCoefficients>
#     </OxygenSensor>
#   </sensor>
#   <sensor Channel="5" >
#     <!-- A/D voltage 1, PAR/Logarithmic, Satlantic -->
#     <PARLog_SatlanticSensor SensorID="76" >
#       <SerialNumber>1122</SerialNumber>
#       <CalibrationDate>08-Sep-2021</CalibrationDate>
#       <a0>9.6751e-001</a0>
#       <a1>8.0992e-001</a1>
#       <Im>1.3589e+000</Im>
#       <Multiplier>1.0000e+000</Multiplier>
#     </PARLog_SatlanticSensor>
#   </sensor>
#   <sensor Channel="6" >
#     <!-- A/D voltage 2, pH -->
#     <pH_Sensor SensorID="43" >
#       <SerialNumber>0363</SerialNumber>
#       <CalibrationDate>28-Feb-23</CalibrationDate>
#       <Slope>4.7364</Slope>
#       <Offset>2.5433</Offset>
#     </pH_Sensor>
#   </sensor>
#   <sensor Channel="7" >
#     <!-- A/D voltage 3, Oxidation Reduction Potential -->
#     <OxidationReductionPotentialSensor SensorID="41" >
#       <SerialNumber>0363</SerialNumber>
#       <CalibrationDate>28-Feb-23</CalibrationDate>
#       <B>2.499480</B>
#       <M>-0.496195</M>
#       <Offset>0.0</Offset>
#     </OxidationReductionPotentialSensor>
#   </sensor>
#   <sensor Channel="8" >
#     <!-- A/D voltage 4, Fluorometer, WET Labs ECO-AFL/FL -->
#     <FluoroWetlabECO_AFL_FL_Sensor SensorID="20" >
#       <SerialNumber>FLNTURT-2496</SerialNumber>
#       <CalibrationDate>02-Sep-2021</CalibrationDate>
#       <ScaleFactor>4.80000000e+001</ScaleFactor>
#       <!-- Dark output -->
#       <Vblank>0.0550</Vblank>
#     </FluoroWetlabECO_AFL_FL_Sensor>
#   </sensor>
#   <sensor Channel="9" >
#     <!-- A/D voltage 5, Turbidity Meter, WET Labs, ECO-NTU -->
#     <TurbidityMeter SensorID="67" >
#       <SerialNumber>FLNTURT--2496</SerialNumber>
#       <CalibrationDate>02-Sep-2021</CalibrationDate>
#       <ScaleFactor>197.000000</ScaleFactor>
#       <!-- Dark output -->
#       <DarkVoltage>0.070000</DarkVoltage>
#     </TurbidityMeter>
#   </sensor>
# </Sensors>
# datcnv_date = Dec 17 2025 16:26:28, 7.26.7.129 [datcnv_vars = 14]
# datcnv_in = C:\R\Reservoirs\Data\DataNotYetUploadedToEDI\Raw_CTD\RawDownloads\111025_fcr40_S7809007.hex C:\R\Reservoirs\Data\DataNotYetUploadedToEDI\Raw_CTD\RawDownloads\SBE19plusV2_7809_start20230701.xmlcon
# datcnv_skipover = 0
# datcnv_ox_hysteresis_correction = yes
# datcnv_ox_tau_correction = yes
# filter_date = Dec 17 2025 16:27:09, 7.26.7.129
# filter_in = C:\R\Reservoirs\Data\DataNotYetUploadedToEDI\Raw_CTD\RawDownloads\111025_fcr40_S7809007.cnv
# filter_low_pass_tc_A = 0.030
# filter_low_pass_tc_B = 0.150
# filter_low_pass_A_vars = sbeox0Mg/L prdM prdE tv290C
# filter_low_pass_B_vars = depFM dz/dtM sbeox0PS specc c0uS/cm flECO-AFL ph orp par/sat/log turbWETntu0
# alignctd_date = Dec 17 2025 16:27:40, 7.26.7.129
# alignctd_in = C:\R\Reservoirs\Data\DataNotYetUploadedToEDI\Raw_CTD\RawDownloads\111025_fcr40_S7809007.cnv
# alignctd_adv = dz/dtM 1.000, sbeox0PS 1.000, specc 1.000, c0uS/cm 1.000, flECO-AFL 1.000, ph 1.000, orp 1.000, turbWETntu0 1.000                                                                                                   
# file_type = ascii
*END*
     -0.730 4.8923e-27    10.3843     88.796      4.755   3.187843     0.0097      8.590   706.6639 3.1676e+02     7.8045     -0.716     -1.038     8.4818 0.0000e+00
     -0.730 5.3815e-26    10.3778     88.830      5.203   3.488700    -0.0087      8.577   786.5536 3.1298e+02     7.6646     -0.715     -1.037     8.4906 0.0000e+00
     -0.730 5.9197e-25    10.3781     88.885      5.810   3.896751    -0.0190      8.569   856.2536 3.0267e+02     6.8328     -0.716     -1.038     8.5004 0.0000e+00
     -0.729 6.5116e-24    10.3864     88.921      5.685   3.813671    -0.0233      8.564   911.0753 2.8825e+02     5.2632     -0.715     -1.037     8.5087 0.0000e+00
     -0.729 7.1628e-23    10.3838     88.951      5.496   3.687676    -0.0348      8.572   921.4614 2.7364e+02     4.3309     -0.715     -1.037     8.5173 0.0000e+00
     -0.729 7.8791e-22    10.3841     88.976      7.123   4.780508    -0.0584      8.585   925.2169 2.5901e+02     4.1345     -0.716     -1.038     8.5247 0.0000e+00
     -0.729 8.6670e-21    10.3939     88.981      9.133   6.130224    -0.0764      8.599   910.4520 2.4624e+02     4.0844     -0.715     -1.038     8.5318 0.0000e+00
     -0.729 9.5337e-20    10.3931     88.965      8.758   5.878841    -0.0604      8.627   837.5834 2.3844e+02     3.7253     -0.716     -1.038     8.5385 0.0000e+00
     -0.729 1.0487e-18    10.3954     88.915      6.745   4.528476    -0.0476      8.644   734.7206 2.3589e+02     2.8678     -0.715     -1.038     8.5449 0.0000e+00
     -0.729 1.1536e-17    10.3986     88.857      6.610   4.438263    -0.0639      8.621   640.7970 2.3708e+02     2.3239     -0.715     -1.037     8.5509 0.0000e+00
     -0.729 1.2689e-16    10.3960     88.842      8.356   5.611818    -0.0663      8.586   530.2611 2.3823e+02     2.2733     -0.715     -1.037     8.5564 0.0000e+00
     -0.729 1.3958e-15    10.3953     88.857      8.909   5.983455    -0.0592      8.566   377.7971 2.3508e+02     2.1184     -0.715     -1.038     8.5617 0.0000e+00
     -0.729 1.5354e-14    10.3865     88.860      8.110   5.447304    -0.0702      8.538   285.6749 2.2150e+02     1.7498     -0.715     -1.038     8.5667 0.0000e+00
     -0.729 1.6889e-13    10.3748     88.859      7.664   5.148202    -0.0657      8.478   383.0710 1.9383e+02     1.5741     -0.715     -1.037     8.5714 0.0000e+00
     -0.729 1.8578e-12    10.3734     88.882      7.955   5.344787    -0.0383      8.400   627.1265 1.6427e+02     1.6334     -0.715     -1.037     8.5761 0.0000e+00
     -0.729 2.0436e-11    10.3768     88.920      8.061   5.416676    -0.0221      8.342   836.7225 1.4527e+02     1.4758     -0.715     -1.037     8.5805 0.0000e+00
     -0.729 2.2480e-10    10.3756     88.964      7.824   5.257166    -0.0361      8.310   935.2784 1.3416e+02     1.0008     -0.715     -1.037     8.5849 0.0000e+00
     -0.729 2.4728e-09    10.3717     88.990      7.630   5.126794    -0.0666      8.285   978.0679 1.2446e+02     0.6389     -0.714     -1.036     8.5889 0.0000e+00
     -0.729 2.7201e-08    10.3756     88.983      7.600   5.107475    -0.0653      8.273  1004.5954 1.1483e+02     0.5843     -0.715     -1.037     8.5921 0.0000e+00
     -0.729 2.9921e-07    10.3792     88.998      7.757   5.213650    -0.0463      8.272  1012.5279 1.0635e+02     0.4430     -0.715     -1.037     8.5947 0.0000e+00
     -0.729      0.000    10.3836     89.035      7.935   5.333500    -0.0605      8.261  1011.5159 1.0082e+02     0.0585     -0.715     -1.037     8.5971 0.0000e+00
     -0.729      0.000    10.3903     89.041      8.057   5.416174    -0.0787      8.245  1012.4065 9.9760e+01    -0.1374     -0.715     -1.037     8.5988 0.0000e+00
     -0.730      0.000    10.3826     89.003      8.394   5.643036    -0.0673      8.274   903.8735 1.0030e+02    -0.0126     -0.716     -1.038     8.6009 0.0000e+00
     -0.730      0.004    10.3849     88.943     12.850   8.646666    -0.0558      8.419   546.0513 1.0204e+02     0.3720     -0.715     -1.038     8.6025 0.0000e+00
     -0.729      0.018    10.3925     88.884     25.458  17.206888    -0.0147      8.629   159.6710 1.1273e+02     3.9666     -0.715     -1.037     8.6049 0.0000e+00
     -0.729      0.045    10.3928     88.861     40.763  27.816965     0.0804      8.750    33.9995 1.3716e+02    10.6551     -0.715     -1.036     8.6056 0.0000e+00
     -0.728      0.083    10.3864     88.928     49.393  34.148408     0.1617      8.776    47.6811 1.6492e+02    14.3590     -0.716     -1.038     8.6088 0.0000e+00
     -0.714      0.128    10.3786     88.996     50.234  35.216871     0.2107      8.782    51.7476 1.8832e+02    14.5563     -0.712     -1.032     8.6070 0.0000e+00
     -0.674      0.173    10.3700     88.913     48.708  34.583296     0.3484      8.788    55.1183 2.1151e+02    12.2216     -0.669     -0.971     8.6133 0.0000e+00
     -0.609      0.213    10.2822     88.674     47.730  34.229385     0.5949      8.789    62.4518 2.2909e+02     7.8212     -0.598     -0.868     8.9298 0.0000e+00
     -0.535      0.243    10.1413     88.340     47.155  34.047065     0.7527      8.784    67.6282 2.3357e+02     5.4851     -0.525     -0.761     9.5550 0.0000e+00
     -0.463      0.261    10.0329     87.973     46.855  33.965293     0.8001      8.780    64.2750 2.2482e+02     5.3937     -0.453     -0.656    10.0881 0.0000e+00
     -0.393      0.262     9.9162     87.648     46.726  33.938727     0.8351      8.780    58.7340 2.0690e+02     5.4187     -0.385     -0.559    10.5331 0.0000e+00
     -0.327      0.250     9.8018     87.413     46.677  33.916268     0.8510      8.784    56.2989 1.8098e+02     5.3431     -0.319     -0.463    10.9045 0.0000e+00
     -0.263      0.229     9.7128     87.329     46.689  33.884095     0.8427      8.789    55.5684 1.5151e+02     5.2995     -0.258     -0.374    11.1323 0.0000e+00
     -0.201      0.200     9.6369     87.460     46.778  33.866906     0.8507      8.795    54.8916 1.3472e+02     5.3345     -0.196     -0.283    11.2680 0.0000e+00
     -0.146      0.166     9.5880     87.823     46.850  33.835240     0.8638      8.800    54.4822 1.2646e+02     5.2880     -0.136     -0.196    11.3302 0.0000e+00
     -0.107      0.129     9.5546     88.359     46.828  33.754914     0.8514      8.804    54.2326 1.1874e+02     5.1131     -0.100     -0.144    11.3501 0.0000e+00
     -0.083      0.090     9.5522     88.948     46.755  33.656961     0.8427      8.808    54.1102 1.1818e+02     4.9631     -0.079     -0.114    11.3052 0.0000e+00
     -0.070      0.051     9.5910     89.503     46.722  33.602531     0.8335      8.813    54.1221 1.2039e+02     4.9771     -0.066     -0.095    11.1932 0.0000e+00
     -0.065      0.015     9.6532     89.988     46.754  33.604345     0.8485      8.817    54.2893 1.2119e+02     5.1460     -0.062     -0.090    11.0982 0.0000e+00
     -0.065     -0.015     9.7335     90.364     46.792  33.615417     0.8832      8.821    54.4109 1.2382e+02     5.2629     -0.061     -0.089    11.0329 0.0000e+00
     -0.071     -0.035     9.8130     90.587     46.793  33.609502     0.8957      8.825    54.4736 1.2651e+02     5.2290     -0.064     -0.094    10.9836 0.0000e+00
     -0.088     -0.044     9.8811     90.646     46.761  33.596259     0.8983      8.828    54.7042 1.2960e+02     5.1804     -0.083     -0.121    10.9549 0.0000e+00
     -0.112     -0.044     9.9414     90.569     46.799  33.645640     0.8894      8.832    55.0476 1.3438e+02     5.1876     -0.111     -0.162    10.9331 0.0000e+00
     -0.132     -0.037     9.9891     90.413     46.877  33.699035     0.8794      8.836    55.2693 1.3691e+02     5.2480     -0.134     -0.195    10.9154 0.0000e+00
     -0.141     -0.026    10.0169     90.217     46.824  33.607398     0.8699      8.840    55.4067 1.3744e+02     5.2960     -0.144     -0.208    10.9045 0.0000e+00
     -0.138     -0.012    10.0202     90.004     46.755  33.489288     0.8488      8.844    55.5906 1.3872e+02     5.2546     -0.137     -0.199    10.9115 0.0000e+00
     -0.132      0.000     9.9999     89.810     46.788  33.476351     0.8333      8.847    55.7717 1.4016e+02     5.1918     -0.127     -0.184    10.9522 0.0000e+00
     -0.129      0.008     9.9766     89.657     46.848  33.514382     0.8401      8.851    55.9619 1.3975e+02     5.1521     -0.125     -0.182    10.9707 0.0000e+00
     -0.129      0.010     9.9735     89.552     46.827  33.504999     0.8558      8.853    56.4277 1.3803e+02     5.1504     -0.127     -0.185    10.8907 0.0000e+00
     -0.128      0.008     9.9706     89.492     46.706  33.426359     0.8490      8.856    61.4902 1.3849e+02     5.1366     -0.126     -0.183    10.7914 0.0000e+00
     -0.124      0.008     9.9563     89.455     46.636  33.388331     0.8329      8.860    66.9244 1.4068e+02     5.0531     -0.122     -0.177    10.7587 0.0000e+00
     -0.121      0.015     9.9377     89.438     46.646  33.425883     0.8439      8.864    63.3678 1.3908e+02     5.0980     -0.118     -0.171    10.7647 0.0000e+00
     -0.120      0.030     9.9237     89.421     46.659  33.499763     0.8744      8.866    58.3233 1.3528e+02     5.3038     -0.118     -0.171    10.7728 0.0000e+00
     -0.120      0.049     9.9178     89.401     46.653  33.583788     0.8846      8.868    57.4692 1.3869e+02     5.4236     -0.120     -0.173    10.7795 0.0000e+00
     -0.112      0.064     9.9099     89.421     46.626  33.617135     0.8595      8.870    57.4292 1.4121e+02     5.3847     -0.119     -0.171    10.7897 0.0000e+00
     -0.087      0.073     9.9047     89.510     46.640  33.585808     0.8372      8.872    57.4957 1.3153e+02     5.2780     -0.092     -0.133    10.8106 0.0000e+00
     -0.050      0.072     9.8879     89.660     46.721  33.522192     0.8481      8.874    57.4132 1.2071e+02     5.1925     -0.044     -0.063    10.8806 0.0000e+00
     -0.019      0.061     9.8548     89.850     46.843  33.482270     0.8656      8.877    57.2056 1.1351e+02     5.1021     -0.014     -0.020    11.0025 0.0000e+00
     -0.000      0.045     9.8357     90.054     46.963  33.483631     0.8664      8.881    57.1368 1.0904e+02     5.0388      0.005      0.007    11.0892 0.0000e+00
      0.002      0.028     9.8578     90.252     46.987  33.475121     0.8484      8.883    57.2693 1.0956e+02     5.0415      0.009      0.014    11.0416 0.0000e+00
     -0.009      0.013     9.9141     90.415     46.889  33.442788     0.8315      8.884    57.3461 1.1206e+02     5.0673     -0.011     -0.015    10.8687 0.0000e+00
     -0.019      0.005     9.9721     90.506     46.742  33.409958     0.8454      8.886    57.2911 1.1140e+02     5.1458     -0.025     -0.037    10.7153 0.0000e+00
     -0.014      0.003    10.0157     90.546     46.618  33.395480     0.8745      8.887    57.2056 1.0715e+02     5.1694     -0.017     -0.024    10.6277 0.0000e+00
     -0.003      0.005    10.0469     90.566     46.518  33.394714     0.8756      8.888    57.1730 1.0577e+02     5.0796     -0.001     -0.001    10.5895 0.0000e+00
      0.004      0.008    10.0555     90.570     46.429  33.400764     0.8506      8.890    57.2413 1.1080e+02     4.9826      0.006      0.008    10.6465 0.0000e+00
      0.004      0.007    10.0407     90.554     46.344  33.405254     0.8476      8.892    57.3423 1.1481e+02     4.9869      0.004      0.005    10.7409 0.0000e+00
      0.002      0.002    10.0264     90.512     46.241  33.385636     0.8640      8.894    57.4484 1.1172e+02     5.0981      0.002      0.003    10.8161 0.0000e+00
     -0.001     -0.001    10.0118     90.481     46.144  33.353957     0.8571      8.896    57.5775 1.0868e+02     5.1313     -0.000      0.000    10.8921 0.0000e+00
     -0.004     -0.001     9.9932     90.481     46.092  33.339489     0.8310      8.897    57.6991 1.1041e+02     5.0475     -0.004     -0.007    10.9695 0.0000e+00
     -0.004      0.002     9.9770     90.494     46.063  33.337614     0.8226      8.899    57.7998 1.1414e+02     5.0413     -0.005     -0.007    11.0414 0.0000e+00
     -0.001      0.006     9.9547     90.523     46.024  33.331305     0.8475      8.901    57.8484 1.1531e+02     5.1243     -0.001     -0.000    11.1043 0.0000e+00
      0.001      0.010     9.9406     90.558     45.989  33.326677     0.8743      8.903    57.8566 1.1182e+02     5.1624      0.001      0.002    11.1457 0.0000e+00
      0.004      0.013     9.9391     90.588     45.991  33.345121     0.8639      8.903    57.8991 1.0838e+02     5.1266      0.002      0.004    11.1639 0.0000e+00
      0.009      0.014     9.9344     90.628     45.998  33.363991     0.8291      8.903    57.9319 1.0667e+02     5.0335      0.008      0.011    11.1821 0.0000e+00
      0.014      0.014     9.9329     90.710     45.981  33.364517     0.8281      8.904    57.9094 1.0508e+02     5.0272      0.015      0.021    11.2082 0.0000e+00
      0.019      0.013     9.9318     90.838     45.948  33.351497     0.8607      8.907    58.0570 1.0443e+02     5.1190      0.020      0.028    11.2323 0.0000e+00
      0.022      0.011     9.9304     90.965     45.913  33.333465     0.8902      8.909    58.4262 1.0390e+02     5.1189      0.022      0.031    11.2503 0.0000e+00
      0.023      0.008     9.9296     90.931     45.909  33.336830     0.9023      8.912    58.6737 1.0434e+02     5.0253      0.023      0.033    11.2643 0.0000e+00
      0.025      0.006     9.9351     90.373     45.890  33.328754     0.8827      8.914    58.7262 1.0839e+02     5.0123      0.025      0.035    11.2785 0.0000e+00
      0.025      0.004     9.9486     88.991     45.845  33.299263     0.8771      8.915    58.8029 1.1037e+02     5.0981      0.025      0.036    11.2908 0.0000e+00
      0.026      0.003     9.9628     86.766     45.842  33.297487     0.8846      8.916    58.9119 1.0712e+02     5.1744      0.024      0.035    11.2985 0.0000e+00
      0.027      0.003     9.9764     83.858     45.857  33.307274     0.8568      8.917    59.0115 1.0632e+02     5.2170      0.026      0.038    11.3053 0.0000e+00
      0.028      0.002     9.9279     80.496     45.834  33.290710     0.8322      8.919    59.1480 1.0674e+02     5.2044      0.028      0.041    11.3120 0.0000e+00
      0.028      0.000     9.7733     76.987     45.831  33.287551     0.8289      8.921    59.2711 1.0599e+02     5.2271      0.028      0.040    11.3164 0.0000e+00
      0.029     -0.004     9.5238     73.659     45.894  33.332516     0.8251      8.921    59.3815 1.0714e+02     5.2858      0.026      0.038    11.3146 0.0000e+00
      0.030     -0.006     9.1973     70.709     45.969  33.390264     0.8278      8.921    59.5356 1.0704e+02     5.1973      0.030      0.044    11.3123 0.0000e+00
      0.028     -0.006     8.8175     68.250     45.992  33.414789     0.8373      8.922    59.7586 1.0387e+02     5.0450      0.030      0.045    11.3153 0.0000e+00
      0.021     -0.003     8.4181     66.343     45.929  33.375276     0.8481      8.923    60.0129 1.0388e+02     5.0505      0.020      0.030    11.3134 0.0000e+00
      0.015      0.000     8.0485     64.826     45.818  33.293193     0.8577      8.926    60.2010 1.0486e+02     5.1605      0.012      0.018    11.3091 0.0000e+00
      0.016      0.002     7.7229     63.525     45.761  33.247095     0.8620      8.928    60.3130 1.0351e+02     5.2140      0.014      0.020    11.3130 0.0000e+00
      0.023      0.004     7.4438     62.453     45.785  33.262010     0.8589      8.928    60.3336 1.0624e+02     5.1505      0.023      0.033    11.3245 0.0000e+00
      0.030      0.005     7.2434     61.568     45.813  33.283206     0.8359      8.929    60.3646 1.1024e+02     5.0073      0.032      0.046    11.3345 0.0000e+00
      0.032      0.004     7.0898     60.803     45.849  33.313043     0.8264      8.930    60.5156 1.1176e+02     4.9861      0.033      0.047    11.3308 0.0000e+00
      0.029      0.001     6.9403     60.131     45.914  33.368986     0.8438      8.931    60.6094 1.1218e+02     5.1675      0.029      0.042    11.3216 0.0000e+00
      0.025     -0.001     6.8289     59.529     45.929  33.388619     0.8374      8.932    60.5533 1.1343e+02     5.3565      0.024      0.035    11.3210 0.0000e+00
      0.023     -0.001     6.7345     59.045     45.881  33.360105     0.8079      8.933    60.5257 1.1553e+02     5.3574      0.022      0.031    11.3216 0.0000e+00
      0.023      0.000     6.6493     58.719     45.851  33.341464     0.7857      8.935    60.7054 1.1334e+02     5.2474      0.022      0.032    11.3248 0.0000e+00
      0.025      0.001     6.5780     58.502     45.865  33.353557     0.7859      8.937    61.0059 1.0853e+02     5.2559      0.025      0.036    11.3355 0.0000e+00
      0.028      0.001     6.5062     58.321     45.897  33.379436     0.8024      8.939    61.1479 1.0924e+02     5.2887      0.029      0.040    11.3468 0.0000e+00
      0.029      0.000     6.4502     58.151     45.919  33.400594     0.8191      8.940    61.1308 1.1565e+02     5.2689      0.029      0.042    11.3534 0.0000e+00
      0.028     -0.001     6.4171     58.008     45.938  33.419049     0.8204      8.941    61.1435 1.1658e+02     5.2892      0.029      0.041    11.3557 0.0000e+00
      0.025     -0.001     6.3963     57.855     45.923  33.412243     0.8020      8.941    61.2145 1.1272e+02     5.3301      0.024      0.035    11.3567 0.0000e+00
      0.023     -0.001     6.3780     57.713     45.878  33.381752     0.7963      8.942    61.3014 1.1119e+02     5.4213      0.022      0.032    11.3602 0.0000e+00
      0.023     -0.002     6.3549     57.652     45.863  33.367610     0.8023      8.943    61.3339 1.0926e+02     5.4362      0.023      0.033    11.3665 0.0000e+00
      0.024     -0.003     6.3421     57.606     45.873  33.368139     0.7910      8.944    61.3497 1.1000e+02     5.3050      0.024      0.034    11.3721 0.0000e+00
      0.027     -0.004     6.3258     57.526     45.908  33.388136     0.7759      8.945    61.4931 1.1884e+02     5.2008      0.027      0.039    11.3763 0.0000e+00
      0.027     -0.004     6.3007     57.449     45.951  33.419052     0.7860      8.946    61.6049 1.2740e+02     5.2361      0.029      0.041    11.3796 0.0000e+00
      0.023     -0.004     6.3024     57.395     45.956  33.424722     0.8130      8.947    61.4963 1.3448e+02     5.3553      0.024      0.034    11.3778 0.0000e+00
      0.017     -0.006     6.3003     57.369     45.914  33.393253     0.8190      8.949    61.3846 1.4348e+02     5.3447      0.014      0.021    11.3674 0.0000e+00
      0.016     -0.009     6.2899     57.395     45.869  33.355786     0.8000      8.949    61.3729 1.3540e+02     5.2102      0.014      0.020    11.3578 0.0000e+00
      0.019     -0.010     6.2805     57.453     45.869  33.352361     0.7921      8.950    61.3550 1.1680e+02     5.1637      0.019      0.029    11.3598 0.0000e+00
      0.019     -0.010     6.2750     57.476     45.866  33.351845     0.8071      8.951    61.3398 1.1065e+02     5.1919      0.021      0.031    11.3653 0.0000e+00
      0.014     -0.009     6.2701     57.464     45.771  33.286099     0.8150      8.953    61.3609 1.1393e+02     5.1752      0.016      0.023    11.3635 0.0000e+00
      0.005     -0.007     6.2738     57.440     45.635  33.191879     0.8041      8.954    61.3524 1.2041e+02     5.0980      0.004      0.005    11.3564 0.0000e+00
     -0.000     -0.006     6.2866     57.382     45.590  33.164301     0.7924      8.954    61.3231 1.2149e+02     5.0444     -0.004     -0.006    11.3509 0.0000e+00
      0.001     -0.004     6.2868     57.273     45.642  33.206426     0.7978      8.955    61.3514 1.1646e+02     5.1082      0.000      0.000    11.3546 0.0000e+00
      0.006     -0.001     6.2832     57.113     45.710  33.257118     0.8196      8.956    61.3495 1.1329e+02     5.1862      0.008      0.011    11.3598 0.0000e+00
      0.009      0.002     6.2818     56.882     45.729  33.269671     0.8303      8.957    61.3006 1.1443e+02     5.1674      0.011      0.016    11.3619 0.0000e+00
      0.008      0.002     6.2756     56.617     45.680  33.231308     0.7947      8.958    61.2767 1.2053e+02     5.1546      0.008      0.012    11.3711 0.0000e+00
      0.006      0.001     6.2610     56.397     45.609  33.173930     0.7383      8.959    61.2323 1.2450e+02     5.2363      0.005      0.007    11.3769 0.0000e+00
      0.005      0.001     6.2465     56.212     45.583  33.146900     0.7317      8.961    61.1948 1.2275e+02     5.3354      0.003      0.005    11.3750 0.0000e+00
      0.006      0.002     6.2200     56.021     45.609  33.158264     0.7562      8.962    61.1668 1.2385e+02     5.3618      0.005      0.008    11.3749 0.0000e+00
      0.008      0.002     6.1858     55.840     45.651  33.184439     0.7593      8.962    61.0662 1.2459e+02     5.2483      0.008      0.011    11.3730 0.0000e+00
      0.010      0.002     6.1640     55.680     45.686  33.209597     0.7530      8.962    61.0109 1.1889e+02     5.0560      0.010      0.015    11.3660 0.0000e+00
      0.011      0.001     6.1486     55.525     45.682  33.208673     0.7632      8.963    61.0139 1.1554e+02     5.0179      0.011      0.017    11.3558 0.0000e+00
      0.010      0.000     6.1269     55.392     45.634  33.173278     0.7912      8.965    61.0154 1.1540e+02     5.1288      0.011      0.016    11.3468 0.0000e+00
      0.009     -0.001     6.1066     55.257     45.624  33.162297     0.8010      8.966    61.1160 1.1449e+02     5.1330      0.008      0.012    11.3421 0.0000e+00
      0.008     -0.001     6.0922     55.090     45.687  33.202778     0.7818      8.966    61.1976 1.1312e+02     5.0694      0.007      0.010    11.3422 0.0000e+00
      0.008      0.001     6.0712     54.911     45.712  33.218624     0.7829      8.967    61.1418 1.1560e+02     5.1797      0.008      0.011    11.3454 0.0000e+00
      0.008      0.005     6.0589     54.719     45.635  33.163559     0.7980      8.968    61.0438 1.1746e+02     5.3739      0.008      0.011    11.3461 0.0000e+00
      0.008      0.007     6.0474     54.499     45.556  33.107980     0.7975      8.968    60.9590 1.0970e+02     5.4701      0.007      0.010    11.3410 0.0000e+00
      0.011      0.008     6.0271     54.276     45.567  33.117612     0.7772      8.969    60.9768 1.0523e+02     5.4206      0.009      0.013    11.3325 0.0000e+00
      0.016      0.008     6.0089     54.044     45.611  33.153142     0.7356      8.970    61.0011 1.0663e+02     5.2536      0.016      0.024    11.3297 0.0000e+00
      0.021      0.007     5.9888     53.794     45.609  33.156904     0.7274      8.972    60.9082 1.0438e+02     5.1931      0.022      0.033    11.3332 0.0000e+00
      0.021      0.002     5.9623     53.585     45.608  33.163114     0.7524      8.972    60.9729 1.0532e+02     5.3041      0.020      0.030    11.3350 0.0000e+00
      0.021     -0.004     5.9379     53.427     45.692  33.228228     0.7633      8.971    61.1810 1.0830e+02     5.3314      0.018      0.026    11.3357 0.0000e+00
      0.022     -0.009     5.9152     53.279     45.804  33.309759     0.7509      8.973    61.1866 1.0788e+02     5.1810      0.024      0.035    11.3394 0.0000e+00
      0.019     -0.009     5.8809     53.139     45.828  33.324132     0.7191      8.975    61.1271 1.0970e+02     5.0238      0.023      0.033    11.3454 0.0000e+00
      0.008     -0.006     5.8577     53.026     45.762  33.275125     0.7200      8.975    61.1499 1.1205e+02     5.0020      0.006      0.009    11.3541 0.0000e+00
      0.000     -0.002     5.8424     52.971     45.701  33.224762     0.7455      8.974    61.1183 1.0798e+02     5.0883     -0.005     -0.006    11.3618 0.0000e+00
      0.003      0.000     5.8250     52.955     45.733  33.222737     0.7361      8.975    61.0886 1.0194e+02     5.1792      0.001      0.002    11.3591 0.0000e+00
      0.013      0.002     5.8111     52.903     45.823  33.250614     0.7148      8.977    61.1346 1.0038e+02     5.2127      0.014      0.020    11.3542 0.0000e+00
      0.019      0.003     5.7961     52.768     45.842  33.244562     0.7128      8.978    61.2450 9.8894e+01     5.1855      0.021      0.031    11.3524 0.0000e+00
      0.019      0.002     5.7903     52.567     45.805  33.212991     0.7452      8.978    61.3051 9.8021e+01     5.1582      0.019      0.029    11.3584 0.0000e+00
      0.014     -0.001     5.7965     52.329     45.776  33.186106     0.7730      8.978    61.1728 9.9618e+01     5.1217      0.013      0.020    11.3283 0.0000e+00
      0.009     -0.002     5.8012     52.049     45.771  33.173261     0.7572      8.978    61.0222 1.0070e+02     5.0517      0.007      0.011    11.2664 0.0000e+00
      0.007     -0.002     5.7873     51.719     45.798  33.184564     0.7632      8.979    61.0328 1.0071e+02     5.0629      0.005      0.007    11.2494 0.0000e+00
      0.009     -0.000     5.7627     51.360     45.819  33.195879     0.7957      8.980    61.1287 9.8911e+01     5.1539      0.008      0.011    11.2554 0.0000e+00
      0.012      0.002     5.7382     50.989     45.802  33.183180     0.8091      8.982    61.1493 9.6851e+01     5.1957      0.012      0.017    11.2480 0.0000e+00
      0.014      0.002     5.7105     50.651     45.768  33.157906     0.8078      8.983    61.0232 9.5557e+01     5.1246      0.014      0.021    11.2343 0.0000e+00
      0.014      0.001     5.6731     50.367     45.751  33.144063     0.7968      8.983    60.8942 9.6558e+01     5.0114      0.015      0.021    11.2245 0.0000e+00
      0.013     -0.001     5.6351     50.101     45.754  33.142692     0.7923      8.984    60.7955 9.7779e+01     5.0565      0.012      0.019    11.2215 0.0000e+00
      0.011     -0.002     5.5923     49.863     45.759  33.141320     0.8046      8.985    60.7759 9.7862e+01     5.2601      0.010      0.016    11.2210 0.0000e+00
      0.009     -0.002     5.5521     49.659     45.747  33.127468     0.8112      8.985    60.8297 9.7915e+01     5.3891      0.009      0.013    11.2219 0.0000e+00
      0.009     -0.001     5.5266     49.484     45.717  33.102090     0.7968      8.985    60.7573 9.6016e+01     5.3191      0.008      0.011    11.2199 0.0000e+00
      0.009      0.001     5.4945     49.344     45.704  33.088247     0.7728      8.986    60.6758 9.4989e+01     5.1988      0.009      0.012    11.2156 0.0000e+00
      0.010      0.002     5.4698     49.219     45.708  33.086980     0.7707      8.986    60.7043 9.6544e+01     5.1983      0.010      0.015    11.2102 0.0000e+00
      0.012      0.002     5.4488     49.084     45.713  33.086762     0.7961      8.987    60.7571 9.6595e+01     5.2116      0.012      0.017    11.2048 0.0000e+00
      0.012      0.002     5.4286     48.951     45.716  33.085608     0.8137      8.989    60.8839 9.4377e+01     5.1549      0.013      0.018    11.2003 0.0000e+00
      0.011      0.001     5.4157     48.855     45.704  33.073023     0.8003      8.990    61.0329 9.4391e+01     5.0924      0.011      0.016    11.1958 0.0000e+00
      0.011      0.001     5.4037     48.780     45.693  33.061479     0.7755      8.990    61.0958 9.5901e+01     5.1395      0.011      0.016    11.1910 0.0000e+00
      0.012      0.001     5.3893     48.685     45.714  33.072909     0.7807      8.990    61.1278 9.5405e+01     5.3150      0.012      0.017    11.1864 0.0000e+00
      0.013      0.002     5.3721     48.577     45.734  33.084339     0.8047      8.991    61.1620 9.4421e+01     5.4032      0.012      0.018    11.1827 0.0000e+00
      0.013      0.002     5.3633     48.463     45.723  33.072785     0.7992      8.992    61.2513 9.3396e+01     5.3172      0.013      0.019    11.1792 0.0000e+00
      0.013      0.002     5.3585     48.338     45.710  33.060096     0.7726      8.992    61.4339 9.2741e+01     5.1982      0.012      0.018    11.1751 0.0000e+00
      0.014      0.001     5.3469     48.201     45.711  33.057799     0.7578      8.993    61.5634 9.2411e+01     5.2275      0.013      0.019    11.1708 0.0000e+00
      0.015     -0.001     5.3352     48.057     45.698  33.045007     0.7701      8.994    61.6119 9.0426e+01     5.3641      0.015      0.023    11.1672 0.0000e+00
      0.016     -0.003     5.3238     47.915     45.685  33.032319     0.8047      8.993    61.6759 9.0152e+01     5.3815      0.017      0.025    11.1639 0.0000e+00
      0.015     -0.004     5.3102     47.778     45.687  33.031269     0.8102      8.993    61.7352 9.3836e+01     5.2675      0.015      0.022    11.1609 0.0000e+00
      0.012     -0.004     5.2959     47.654     45.692  33.032309     0.8024      8.993    61.8128 9.8018e+01     5.1805      0.012      0.016    11.1574 0.0000e+00
      0.008     -0.003     5.2793     47.543     45.712  33.044891     0.8277      8.995    61.8402 9.8031e+01     5.1842      0.007      0.010    11.1535 0.0000e+00
      0.006      0.000     5.2650     47.422     45.730  33.056509     0.8496      8.996    61.8076 9.5147e+01     5.2096      0.004      0.005    11.1500 0.0000e+00
      0.007      0.004     5.2493     47.277     45.718  33.045899     0.8675      8.997    61.8487 9.3226e+01     5.1459      0.005      0.007    11.1468 0.0000e+00
      0.011      0.007     5.2357     47.119     45.718  33.043487     0.8776      8.998    61.9070 9.0716e+01     5.0292      0.011      0.016    11.1441 0.0000e+00
      0.015      0.007     5.2256     46.984     45.871  33.154225     0.8720      8.998    61.9101 8.8526e+01     5.0282      0.015      0.022    11.1420 0.0000e+00
      0.019      0.005     5.2126     46.888     46.240  33.433167     0.8741      8.998    61.9722 8.8381e+01     5.1339      0.018      0.027    11.1400 0.0000e+00
      0.020      0.002     5.1973     46.873     46.526  33.688069     0.8705      8.998    62.0555 8.9804e+01     5.1800      0.021      0.031    11.1377 0.0000e+00
      0.019     -0.000     5.1775     47.108     46.511  33.761937     0.8534      8.998    62.0572 9.1713e+01     5.1412      0.019      0.028    11.1353 0.0000e+00
      0.015     -0.002     5.1626     47.815     46.387  33.755392     0.8330      8.998    62.0791 9.4656e+01     5.1440      0.014      0.020    11.1346 0.0000e+00
      0.013     -0.002     5.1531     49.193     46.285  33.735915     0.8323      8.998    62.0611 9.8438e+01     5.2470      0.011      0.017    11.1338 0.0000e+00
      0.014     -0.002     5.1369     51.244     46.218  33.716839     0.8530      8.998    62.0131 9.8012e+01     5.3616      0.013      0.020    11.1806 0.0000e+00
      0.015     -0.001     5.1412     53.714     46.194  33.715104     0.8425      8.998    62.1007 9.4590e+01     5.3002      0.015      0.022    11.2961 0.0000e+00
      0.015      0.001     5.1969     56.313     46.182  33.714959     0.7960      8.998    62.2594 9.5294e+01     5.1195      0.015      0.022    11.3960 0.0000e+00
      0.015      0.001     5.3384     58.753     46.176  33.715102     0.7743      8.998    62.2970 9.5194e+01     5.0216      0.015      0.022    11.4495 0.0000e+00
      0.015      0.000     5.5734     60.728     46.175  33.716841     0.7884      8.997    62.2967 9.1185e+01     5.0046      0.014      0.021    11.4786 0.0000e+00
      0.014 4.2793e-07     5.8509     62.101     46.199  33.735978     0.7912      8.999    62.4287 9.0590e+01     4.9830      0.014      0.020    11.4924 0.0000e+00
      0.014      0.000     6.1422     62.901     46.223  33.756155     0.7584      9.002    62.5169 9.1612e+01     4.9302      0.013      0.019    11.5009 0.0000e+00
      0.014      0.000     6.4229     63.186     46.238  33.770469     0.7332      9.004    62.5019 9.2095e+01     4.9815      0.014      0.020    11.5050 0.0000e+00
      0.015      0.001     6.6429     63.116     46.248  33.782160     0.7272      9.003    62.5055 9.2973e+01     5.0909      0.015      0.021    11.5071 0.0000e+00
      0.015      0.001     6.7877     62.887     46.228  33.770625     0.7369      9.002    62.5596 9.3543e+01     5.1249      0.015      0.022    11.5082 0.0000e+00
      0.015      0.001     6.8753     62.591     46.208  33.757886     0.7666      9.002    62.6407 9.4478e+01     5.1198      0.014      0.021    11.5106 0.0000e+00
      0.015      0.001     6.8987     62.290     46.203  33.755031     0.7703      9.003    62.7115 9.5108e+01     5.0634      0.014      0.021    11.5159 0.0000e+00
      0.016      0.000     6.8794     62.032     46.176  33.736103     0.7649      9.004    62.8130 9.5647e+01     5.0576      0.016      0.023    11.5208 0.0000e+00
      0.016     -0.001     6.8541     61.802     46.153  33.719363     0.7934      9.005    62.9222 9.4721e+01     5.1527      0.017      0.025    11.5238 0.0000e+00
      0.016     -0.001     6.8180     61.545     46.188  33.742967     0.8319      9.006    62.9131 9.3368e+01     5.2570      0.017      0.024    11.5250 0.0000e+00
      0.015      0.000     6.7831     61.252     46.225  33.767714     0.8467      9.006    62.8760 9.5535e+01     5.2938      0.015      0.020    11.5260 0.0000e+00
      0.014      0.000     6.7553     60.960     46.223  33.764792     0.8400      9.006    62.9030 9.6948e+01     5.2214      0.013      0.018    11.5275 0.0000e+00
      0.015      0.000     6.7334     60.679     46.232  33.771084     0.8506      9.007    62.8962 9.5691e+01     5.2012      0.013      0.019    11.5278 0.0000e+00
      0.016      0.001     6.7066     60.430     46.244  33.780345     0.8744      9.008    62.9658 9.4647e+01     5.2552      0.015      0.022    11.5254 0.0000e+00
      0.017      0.001     6.6712     60.205     46.204  33.749881     0.8694      9.008    63.1421 9.4529e+01     5.1911      0.017      0.024    11.5219 0.0000e+00
      0.017      0.001     6.6422     59.980     46.164  33.719976     0.8492      9.008    63.2197 9.6349e+01     5.0411      0.017      0.025    11.5204 0.0000e+00
      0.017      0.000     6.6084     59.789     46.189  33.735980     0.8380      9.009    63.1299 9.8620e+01     4.9780      0.017      0.024    11.5208 0.0000e+00
      0.016     -0.000     6.5818     59.645     46.214  33.753041     0.8424      9.010    63.0893 9.9006e+01     5.1113      0.015      0.022    11.5215 0.0000e+00
      0.016      0.000     6.5604     59.555     46.192  33.735921     0.8602      9.010    63.2456 9.7625e+01     5.3208      0.015      0.021    11.5212 0.0000e+00
      0.016     -0.001     6.5326     59.543     46.171  33.719331     0.8617      9.010    63.3843 9.6349e+01     5.3590      0.015      0.022    11.5193 0.0000e+00
      0.017     -0.004     6.5122     59.591     46.206  33.742785     0.8449      9.010    63.4763 9.5969e+01     5.2660      0.016      0.023    11.5170 0.0000e+00
      0.017     -0.006     6.4974     59.637     46.237  33.765715     0.8311      9.011    63.5842 9.6499e+01     5.1860      0.017      0.025    11.5155 0.0000e+00
      0.015     -0.006     6.4853     59.687     46.203  33.742787     0.8365      9.011    63.5696 9.6815e+01     5.1439      0.016      0.023    11.5145 0.0000e+00
      0.011     -0.005     6.4848     59.771     46.168  33.719352     0.8598      9.012    63.4721 9.7228e+01     5.0985      0.011      0.016    11.5128 0.0000e+00
      0.006     -0.003     6.4949     59.835     46.188  33.736149     0.8635      9.013    63.3515 9.8209e+01     5.0127      0.004      0.006    11.5103 0.0000e+00
      0.005     -0.001     6.4994     59.844     46.212  33.755546     0.8390      9.014    63.2293 9.6812e+01     4.9944      0.004      0.005    11.5099 0.0000e+00
      0.008      0.001     6.5003     59.837     46.222  33.763549     0.8135      9.014    63.1996 9.5183e+01     5.0827      0.009      0.012    11.5125 0.0000e+00
      0.012      0.003     6.5135     59.818     46.229  33.769473     0.8052      9.014    63.1643 9.5679e+01     5.1238      0.012      0.017    11.5155 0.0000e+00
      0.013      0.003     6.5228     59.796     46.223  33.763720     0.8134      9.015    63.1461 9.6960e+01     5.0478      0.013      0.019    11.5178 0.0000e+00
      0.013      0.002     6.5189     59.794     46.217  33.757434     0.8135      9.015    63.2382 9.7715e+01     4.9829      0.014      0.020    11.5197 0.0000e+00
      0.012     -0.000     6.5196     59.786     46.218  33.756914     0.8057      9.015    63.2454 9.6808e+01     5.0227      0.013      0.018    11.5211 0.0000e+00
      0.011     -0.001     6.5174     59.747     46.220  33.757434     0.8107      9.016    63.1464 9.6019e+01     5.1187      0.011      0.016    11.5212 0.0000e+00
      0.011     -0.001     6.5125     59.714     46.230  33.763722     0.8158      9.017    63.0740 9.6573e+01     5.1877      0.010      0.015    11.5204 0.0000e+00
      0.011     -0.001     6.5148     59.724     46.238  33.769489     0.8094      9.017    62.9724 9.6481e+01     5.1396      0.010      0.014    11.5185 0.0000e+00
      0.011      0.000     6.5161     59.750     46.231  33.763722     0.7918      9.017    62.9499 9.4125e+01     5.0155      0.010      0.015    11.5158 0.0000e+00
      0.011 2.9137e-11     6.5098     59.760     46.223  33.757434     0.7862      9.017    63.0606 9.3482e+01     5.0195      0.011      0.017    11.5145 0.0000e+00
      0.011 3.2051e-10     6.5036     59.766     46.223  33.756914     0.8078      9.017    63.1065 9.6059e+01     5.1533      0.011      0.016    11.5145 0.0000e+00
      0.010 3.5256e-09     6.5067     59.789     46.224  33.757434     0.8108      9.017    63.1614 9.6711e+01     5.1645      0.010      0.015    11.5145 0.0000e+00
      0.010 3.8782e-08     6.5117     59.830     46.232  33.763722     0.7809      9.017    63.2080 9.4938e+01     5.0176      0.010      0.015    11.5140 0.0000e+00
      0.011 4.2660e-07     6.5113     59.870     46.239  33.769489     0.7553      9.018    63.1536 9.2928e+01     4.9146      0.011      0.016    11.5129 0.0000e+00
      0.012      0.000     6.5119     59.905     46.230  33.763721     0.7669      9.019    63.1060 9.1323e+01     4.9790      0.011      0.017    11.5121 0.0000e+00
      0.012      0.000     6.5135     59.930     46.221  33.757429     0.8059      9.020    62.9760 9.2158e+01     5.1473      0.012      0.017    11.5125 0.0000e+00
      0.012      0.001     6.5195     59.941     46.219  33.756857     0.8103      9.020    62.8733 9.3075e+01     5.2404      0.011      0.017    11.5133 0.0000e+00
      0.011      0.001     6.5239     59.937     46.218  33.756806     0.7864      9.020    62.9829 9.3278e+01     5.2852      0.011      0.016    11.5136 0.0000e+00
      0.011      0.001     6.5270     59.886     46.217  33.756811     0.7749      9.022    63.0108 9.4628e+01     5.3139      0.011      0.016    11.5139 0.0000e+00
      0.012      0.001     6.5313     59.787     46.216  33.756915     0.7709      9.023    62.8653 9.4695e+01     5.2795      0.011      0.016    11.5148 0.0000e+00
      0.013      0.001     6.5299     59.688     46.216  33.758069     0.7709      9.022    62.7730 9.4826e+01     5.2107      0.012      0.018    11.5158 0.0000e+00
      0.013      0.000     6.5330     59.610     46.233  33.770763     0.7675      9.022    62.8411 9.5837e+01     5.0634      0.013      0.018    11.5163 0.0000e+00
      0.013      0.000     6.5275     59.562     46.249  33.783503     0.7710      9.024    63.0002 9.5324e+01     5.0012      0.012      0.018    11.5173 0.0000e+00
      0.012      0.000     6.5126     59.533     46.251  33.785228     0.7961      9.026    63.0632 9.4123e+01     5.1078      0.012      0.017    11.5186 0.0000e+00
      0.012     -0.001     6.5024     59.522     46.259  33.791615     0.8139      9.026    63.0002 9.4250e+01     5.1221      0.012      0.017    11.5194 0.0000e+00
      0.012     -0.001     6.4927     59.562     46.267  33.797288     0.8025      9.025    62.9261 9.4661e+01     5.0377      0.011      0.017    11.5201 0.0000e+00
      0.012      0.000     6.4878     59.636     46.258  33.790373     0.7832      9.025    62.8555 9.5032e+01     5.0094      0.012      0.017    11.5206 0.0000e+00
      0.012 -1.847e-08     6.4864     59.702     46.235  33.771445     0.7805      9.025    62.7489 9.5876e+01     5.0534      0.011      0.017    11.5210 0.0000e+00
      0.012 -2.032e-07     6.4812     59.757     46.220  33.758766     0.8027      9.025    62.6698 9.4191e+01     5.1595      0.011      0.016    11.5216 0.0000e+00
      0.012 -2.031e-07     6.4870     59.803     46.229  33.763956     0.8190      9.025    62.6735 9.2166e+01     5.3018      0.011      0.017    11.5220 0.0000e+00
      0.012 -1.783e-08     6.4981     59.845     46.239  33.770759     0.8035      9.026    62.7933 9.1378e+01     5.3729      0.012      0.017    11.5216 0.0000e+00
      0.013 5.3993e-09     6.5040     59.900     46.249  33.777566     0.7808      9.026    62.9140 9.0131e+01     5.3034      0.012      0.018    11.5196 0.0000e+00
      0.013 7.7714e-08     6.5112     59.967     46.257  33.782813     0.7854      9.027    62.9279 9.1081e+01     5.3144      0.013      0.019    11.5169 0.0000e+00
      0.012 8.5652e-07     6.5162     60.004     46.242  33.770758     0.8102      9.028    62.8763 9.3023e+01     5.4031      0.012      0.017    11.5149 0.0000e+00
      0.012      0.000     6.5204     60.009     46.225  33.758693     0.8066      9.028    62.8061 9.2655e+01     5.3520      0.011      0.016    11.5145 0.0000e+00
      0.012      0.000     6.5247     60.006     46.230  33.763836     0.7751      9.028    62.7669 9.0566e+01     5.2431      0.012      0.017    11.5147 0.0000e+00
      0.012      0.001     6.5361     59.960     46.236  33.769500     0.7615      9.028    62.7464 8.9445e+01     5.1788      0.013      0.018    11.5133 0.0000e+00
      0.012      0.003     6.5404     59.858     46.226  33.763723     0.7835      9.028    62.8174 9.0325e+01     5.2242      0.012      0.017    11.5113 0.0000e+00
      0.013      0.003     6.5372     59.724     46.215  33.757435     0.8155      9.028    62.8502 9.1875e+01     5.3135      0.013      0.018    11.5122 0.0000e+00
      0.014      0.002     6.5408     59.601     46.213  33.756915     0.8082      9.029    62.7983 9.1755e+01     5.3030      0.013      0.019    11.5149 0.0000e+00
      0.016      0.001     6.5354     59.535     46.214  33.757446     0.7705      9.030    62.8778 8.9007e+01     5.2677      0.016      0.023    11.5161 0.0000e+00
      0.017      0.000     6.5227     59.535     46.224  33.763847     0.7755      9.030    62.8655 8.7208e+01     5.2272      0.019      0.028    11.5173 0.0000e+00
      0.017 4.6867e-07     6.5068     59.592     46.235  33.770862     0.8359      9.030    62.6498 8.8792e+01     5.1554      0.018      0.026    11.5195 0.0000e+00
      0.014      0.000     6.4898     59.662     46.248  33.778823     0.8764      9.031    62.5063 9.0495e+01     5.0831      0.014      0.020    11.5211 0.0000e+00
      0.013      0.000     6.4839     59.703     46.273  33.796656     0.8563      9.031    62.5081 8.9257e+01     5.0019      0.012      0.017    11.5203 0.0000e+00
      0.014      0.001     6.4834     59.737     46.271  33.796136     0.8265      9.031    62.5854 8.8320e+01     4.9592      0.013      0.019    11.5188 0.0000e+00
      0.016      0.002     6.4915     59.777     46.236  33.772536     0.8325      9.031    62.6657 8.9929e+01     5.0103      0.016      0.023    11.5186 0.0000e+00
      0.018      0.002     6.5027     59.785     46.225  33.765104     0.8627      9.031    62.7046 9.1211e+01     5.1071      0.018      0.026    11.5172 0.0000e+00
      0.019      0.001     6.5049     59.761     46.231  33.769728     0.8829      9.031    62.7983 9.1975e+01     5.1047      0.019      0.028    11.5154 0.0000e+00
      0.019      0.000     6.5072     59.731     46.224  33.764991     0.8765      9.032    62.9378 9.3994e+01     5.0501      0.018      0.027    11.5164 0.0000e+00
      0.018     -0.002     6.5146     59.686     46.233  33.771278     0.8689      9.033    62.9291 9.3558e+01     5.1304      0.017      0.025    11.5195 0.0000e+00
      0.017     -0.002     6.5149     59.640     46.248  33.782302     0.8749      9.034    62.6931 8.9824e+01     5.2894      0.016      0.024    11.5206 0.0000e+00
      0.016     -0.002     6.5096     59.610     46.233  33.771392     0.8650      9.035    62.4074 8.8578e+01     5.3334      0.016      0.023    11.5199 0.0000e+00
      0.016     -0.001     6.5085     59.575     46.225  33.766249     0.8412      9.035    62.3994 8.9224e+01     5.2519      0.015      0.022    11.5202 0.0000e+00
      0.015      0.000     6.5027     59.551     46.247  33.783571     0.8290      9.034    62.5973 8.9471e+01     5.1252      0.014      0.021    11.5204 0.0000e+00
      0.015      0.001     6.4958     59.553     46.256  33.790493     0.8335      9.034    62.7343 9.0078e+01     5.0649      0.014      0.020    11.5203 0.0000e+00
      0.016      0.001     6.4951     59.538     46.251  33.786493     0.8535      9.035    62.7661 8.9596e+01     5.1376      0.015      0.022    11.5204 0.0000e+00
      0.017      0.001     6.4903     59.517     46.268  33.798651     0.8549      9.035    62.6370 8.9133e+01     5.1499      0.017      0.025    11.5207 0.0000e+00
      0.017      0.000     6.4845     59.510     46.283  33.810611     0.8336      9.035    62.5504 8.9546e+01     5.1458      0.018      0.026    11.5219 0.0000e+00
      0.017     -0.000     6.4903     59.519     46.274  33.804210     0.8287      9.035    62.6659 8.9354e+01     5.2586      0.017      0.024    11.5225 0.0000e+00
      0.016     -0.001     6.4859     59.557     46.249  33.784705     0.8459      9.035    62.7424 8.9558e+01     5.3528      0.016      0.024    11.5228 0.0000e+00
      0.015     -0.001     6.4822     59.584     46.224  33.765106     0.8674      9.036    62.7011 8.9655e+01     5.4308      0.015      0.021    11.5225 0.0000e+00
      0.015      0.000     6.4838     59.584     46.214  33.757576     0.8472      9.036    62.6828 8.9305e+01     5.3817      0.015      0.022    11.5228 0.0000e+00
      0.015      0.001     6.4805     59.593     46.213  33.757098     0.8015      9.036    62.7788 8.8914e+01     5.2031      0.015      0.021    11.5236 0.0000e+00
      0.016      0.001     6.4897     59.616     46.217  33.759333     0.7894      9.036    62.8295 8.9221e+01     5.0817      0.016      0.023    11.5217 0.0000e+00
      0.018      0.002     6.4929     59.632     46.252  33.784600     0.7919      9.037    62.6943 8.9497e+01     5.0413      0.018      0.026    11.5196 0.0000e+00
      0.018      0.002     6.4905     59.634     46.285  33.808815     0.7900      9.038    62.6068 8.9254e+01     5.0556      0.017      0.025    11.5200 0.0000e+00
      0.018      0.002     6.4913     59.627     46.269  33.798332     0.7840      9.039    62.6315 8.9353e+01     5.0151      0.016      0.024    11.5207 0.0000e+00
      0.018      0.003     6.4952     59.612     46.248  33.784751     0.7850      9.039    62.6488 8.8154e+01     5.0311      0.017      0.025    11.5198 0.0000e+00
      0.019      0.004     6.4977     59.607     46.228  33.771500     0.8020      9.039    62.7303 8.7532e+01     5.1462      0.018      0.027    11.5189 0.0000e+00
      0.020      0.005     6.4966     59.609     46.217  33.765000     0.8153      9.039    62.8420 8.8560e+01     5.1776      0.019      0.027    11.5196 0.0000e+00
      0.021      0.006     6.4971     59.581     46.221  33.769605     0.8120      9.039    62.7947 8.7906e+01     5.1368      0.020      0.030    11.5210 0.0000e+00
      0.024      0.006     6.4932     59.516     46.211  33.763731     0.7951      9.039    62.6752 8.5793e+01     5.0633      0.023      0.033    11.5222 0.0000e+00
      0.026      0.005     6.4922     59.450     46.201  33.757435     0.7944      9.040    62.6877 8.4265e+01     5.0401      0.026      0.038    11.5240 0.0000e+00
      0.027      0.004     6.4949     59.413     46.200  33.756924     0.8119      9.040    62.7727 8.4537e+01     5.1287      0.026      0.038    11.5260 0.0000e+00
      0.027      0.002     6.4918     59.422     46.200  33.757558     0.7910      9.041    62.8427 8.6481e+01     5.1783      0.026      0.037    11.5277 0.0000e+00
      0.028      0.000     6.4821     59.458     46.210  33.765104     0.7332      9.041    62.9329 8.6967e+01     5.1624      0.027      0.040    11.5290 0.0000e+00
      0.028     -0.002     6.4744     59.508     46.236  33.784713     0.7037      9.041    63.0028 8.7117e+01     5.1757      0.027      0.040    11.5300 0.0000e+00
      0.027     -0.003     6.4686     59.560     46.262  33.804315     0.7169      9.042    62.9988 8.8127e+01     5.2357      0.026      0.038    11.5311 0.0000e+00
      0.026     -0.003     6.4711     59.589     46.271  33.811766     0.7427      9.042    62.9709 8.8824e+01     5.3081      0.026      0.037    11.5316 0.0000e+00
      0.024     -0.002     6.4756     59.593     46.270  33.811360     0.7487      9.042    62.9237 8.8914e+01     5.2988      0.023      0.033    11.5316 0.0000e+00
      0.023     -0.001     6.4807     59.581     46.253  33.799410     0.7318      9.041    62.8583 8.7958e+01     5.2599      0.020      0.030    11.5320 0.0000e+00
      0.023      0.001     6.4886     59.564     46.245  33.794162     0.7141      9.041    62.8678 8.7207e+01     5.2481      0.021      0.031    11.5326 0.0000e+00
      0.025      0.002     6.4904     59.540     46.269  33.811352     0.7166      9.042    63.0389 8.6117e+01     5.2582      0.024      0.035    11.5332 0.0000e+00
      0.027      0.004     6.4914     59.518     46.276  33.816920     0.7373      9.043    63.1208 8.5573e+01     5.2802      0.026      0.038    11.5343 0.0000e+00
      0.027      0.004     6.4882     59.494     46.250  33.798038     0.7403      9.043    62.9975 8.6228e+01     5.2398      0.026      0.038    11.5347 0.0000e+00
      0.028      0.003     6.4879     59.459     46.215  33.773398     0.7193      9.043    62.9247 8.5988e+01     5.2146      0.027      0.039    11.5350 0.0000e+00
      0.029      0.002     6.4839     59.432     46.214  33.772783     0.7005      9.043    63.0148 8.6086e+01     5.2150      0.029      0.041    11.5351 0.0000e+00
      0.030      0.000     6.4818     59.446     46.239  33.790597     0.7122      9.043    63.1408 8.6228e+01     5.1751      0.030      0.043    11.5349 0.0000e+00
      0.030 3.7393e-08     6.4801     59.506     46.253  33.798443     0.7447      9.044    63.0713 8.5687e+01     5.1086      0.029      0.043    11.5355 0.0000e+00
      0.029 4.1132e-07     6.4749     59.560     46.265  33.804211     0.7426      9.044    62.9487 8.6090e+01     5.0255      0.029      0.042    11.5365 0.0000e+00
      0.027 3.8767e-08     6.4711     59.597     46.256  33.796883     0.7125      9.044    63.0348 8.6314e+01     5.0242      0.027      0.039    11.5369 0.0000e+00
      0.027      0.000     6.4703     59.636     46.222  33.773284     0.7223      9.045    63.2519 8.6282e+01     5.0928      0.026      0.038    11.5361 0.0000e+00
      0.028      0.000     6.4824     59.655     46.217  33.772659     0.7695      9.046    63.3371 8.6580e+01     5.1040      0.027      0.039    11.5337 0.0000e+00
      0.030     -0.001     6.4883     59.641     46.237  33.789338     0.7917      9.046    63.2037 8.6477e+01     5.0230      0.029      0.043    11.5301 0.0000e+00
      0.031     -0.001     6.4905     59.606     46.230  33.784611     0.7833      9.046    63.1019 8.5170e+01     4.9328      0.031      0.045    11.5289 0.0000e+00
      0.030     -0.001     6.4965     59.553     46.222  33.778948     0.7846      9.046    63.1384 8.4811e+01     5.0384      0.029      0.043    11.5310 0.0000e+00
      0.027     -0.001     6.4989     59.507     46.230  33.784309     0.8072      9.047    63.1299 8.6176e+01     5.3099      0.026      0.038    11.5345 0.0000e+00
      0.026     -0.001     6.4948     59.497     46.232  33.785981     0.8152      9.047    63.0848 8.5446e+01     5.4136      0.024      0.035    11.5370 0.0000e+00
      0.027      0.000     6.4926     59.529     46.250  33.799172     0.7987      9.047    63.1088 8.4534e+01     5.3025      0.025      0.038    11.5371 0.0000e+00
      0.028      0.001     6.4852     59.603     46.275  33.816908     0.7821      9.047    63.1631 8.5243e+01     5.1610      0.027      0.040    11.5371 0.0000e+00
      0.028      0.001     6.4782     59.663     46.266  33.810092     0.7890      9.048    63.2251 8.5490e+01     5.1040      0.027      0.039    11.5371 0.0000e+00
      0.028      0.000     6.4785     59.658     46.226  33.780211     0.8153      9.049    63.2554 8.6150e+01     5.1604      0.027      0.040    11.5369 0.0000e+00
      0.029     -0.001     6.4803     59.623     46.216  33.772836     0.8171      9.049    63.2707 8.7579e+01     5.1590      0.028      0.041    11.5364 0.0000e+00
      0.029     -0.002     6.4914     59.603     46.232  33.784373     0.7944      9.049    63.3246 8.8029e+01     5.1549      0.028      0.041    11.5360 0.0000e+00
      0.028     -0.002     6.5017     59.577     46.245  33.792806     0.7814      9.050    63.3050 8.8218e+01     5.2474      0.026      0.039    11.5361 0.0000e+00
      0.026     -0.002     6.4979     59.546     46.273  33.811351     0.7939      9.051    63.2062 8.8690e+01     5.2875      0.024      0.036    11.5360 0.0000e+00
      0.024     -0.001     6.4914     59.531     46.284  33.818271     0.8201      9.051    63.1623 8.7190e+01     5.3660      0.023      0.034    11.5356 0.0000e+00
      0.024      0.000     6.4921     59.510     46.276  33.813024     0.8149      9.051    63.2033 8.6613e+01     5.4108      0.023      0.033    11.5348 0.0000e+00
      0.026 -2.032e-08     6.4893     59.482     46.273  33.811360     0.7893      9.051    63.2727 8.8538e+01     5.2834      0.025      0.036    11.5341 0.0000e+00
      0.027 -2.235e-07     6.4833     59.473     46.254  33.798152     0.8020      9.050    63.3131 8.8198e+01     5.1920      0.027      0.040    11.5326 0.0000e+00
      0.027 -2.235e-07     6.4846     59.452     46.229  33.780218     0.8274      9.049    63.3467 8.6019e+01     5.1592      0.027      0.039    11.5305 0.0000e+00
      0.026 -2.061e-08     6.4827     59.407     46.234  33.784851     0.8217      9.049    63.4212 8.6544e+01     5.1266      0.025      0.035    11.5310 0.0000e+00
      0.025 -5.066e-09     6.4760     59.386     46.241  33.790723     0.7989      9.050    63.5262 8.7240e+01     5.1042      0.023      0.033    11.5324 0.0000e+00
      0.025 -3.726e-08     6.4784     59.431     46.237  33.787771     0.7933      9.052    63.4976 8.5067e+01     5.0599      0.024      0.034    11.5327 0.0000e+00
      0.026 -4.098e-07     6.4766     59.531     46.271  33.812609     0.8122      9.053    63.4196 8.4284e+01     5.0685      0.026      0.037    11.5337 0.0000e+00
      0.026      0.000     6.4686     59.636     46.304  33.837258     0.8115      9.054    63.5289 8.6122e+01     5.0721      0.027      0.039    11.5348 0.0000e+00
      0.025     -0.000     6.4646     59.720     46.296  33.832020     0.7852      9.054    63.7014 8.7897e+01     5.0010      0.026      0.037    11.5352 0.0000e+00
      0.025     -0.001     6.4697     59.796     46.267  33.812724     0.7692      9.054    63.7836 8.7411e+01     4.9601      0.024      0.034    11.5352 0.0000e+00
      0.025     -0.001     6.4837     59.860     46.242  33.794287     0.7748      9.054    63.8349 8.6206e+01     5.0223      0.024      0.035    11.5347 0.0000e+00
      0.025     -0.001     6.4961     59.870     46.249  33.799432     0.7953      9.053    63.8917 8.5873e+01     5.1377      0.025      0.036    11.5348 0.0000e+00
      0.025     -0.001     6.5037     59.834     46.267  33.811486     0.8004      9.053    63.9547 8.6553e+01     5.1945      0.024      0.035    11.5359 0.0000e+00
      0.025     -0.001     6.5115     59.804     46.270  33.813140     0.7794      9.053    63.9932 8.7769e+01     5.2650      0.024      0.035    11.5380 0.0000e+00
      0.025     -0.001     6.5211     59.793     46.280  33.819427     0.7649      9.054    63.9279 8.8155e+01     5.3395      0.025      0.036    11.5387 0.0000e+00
      0.024      0.000     6.5225     59.783     46.285  33.824059     0.7758      9.054    63.9396 8.8755e+01     5.3110      0.024      0.034    11.5380 0.0000e+00
      0.023 -1.863e-08     6.5147     59.758     46.258  33.805709     0.8026      9.055    64.1340 8.9576e+01     5.1939      0.023      0.033    11.5369 0.0000e+00
      0.023 -2.049e-07     6.5122     59.720     46.231  33.787885     0.8058      9.055    64.3000 8.9729e+01     5.0508      0.023      0.033    11.5358 0.0000e+00
      0.024 -2.049e-07     6.5121     59.697     46.245  33.798900     0.7816      9.056    64.3977 8.8686e+01     5.0147      0.024      0.035    11.5352 0.0000e+00
      0.025 -1.863e-08     6.5108     59.665     46.262  33.811995     0.7854      9.056    64.5408 8.7545e+01     5.0654      0.025      0.036    11.5355 0.0000e+00
      0.025 -1.692e-09     6.5093     59.585     46.271  33.819322     0.8098      9.056    64.6528 8.7556e+01     5.1176      0.024      0.035    11.5376 0.0000e+00
      0.024 -1.397e-10     6.5014     59.500     46.276  33.824049     0.8186      9.056    64.6337 8.8271e+01     5.1330      0.024      0.035    11.5398 0.0000e+00
      0.024 2.5444e-12     6.5005     59.443     46.249  33.805707     0.8083      9.057    64.6539 8.8580e+01     5.0802      0.024      0.034    11.5408 0.0000e+00
      0.023 2.7989e-11     6.5007     59.406     46.223  33.787886     0.7852      9.057    64.7252 8.8692e+01     5.0607      0.023      0.033    11.5412 0.0000e+00
      0.023 3.0787e-10     6.4875     59.380     46.238  33.798911     0.7807      9.057    64.7212 8.9243e+01     5.1019      0.022      0.032    11.5414 0.0000e+00
      0.024 3.3866e-09     6.4775     59.358     46.255  33.812119     0.7942      9.057    64.6925 8.9453e+01     5.0998      0.023      0.033    11.5425 0.0000e+00
      0.025 3.7253e-08     6.4719     59.355     46.266  33.820694     0.7993      9.057    64.7222 8.9333e+01     5.0350      0.024      0.035    11.5442 0.0000e+00
      0.025 4.0978e-07     6.4675     59.395     46.291  33.839150     0.8009      9.057    64.9076 8.9946e+01     4.9674      0.025      0.036    11.5459 0.0000e+00
      0.024      0.000     6.4652     59.454     46.299  33.844932     0.7959      9.057    65.1274 9.0176e+01     4.9996      0.023      0.034    11.5469 0.0000e+00
      0.023      0.000     6.4624     59.515     46.276  33.827158     0.7977      9.058    65.2290 8.9030e+01     5.1520      0.022      0.031    11.5470 0.0000e+00
      0.023      0.001     6.4597     59.596     46.259  33.814573     0.8065      9.059    65.1901 8.8344e+01     5.2381      0.022      0.031    11.5472 0.0000e+00
      0.024      0.001     6.4660     59.671     46.265  33.819660     0.8024      9.059    65.1726 8.8416e+01     5.1869      0.023      0.035    11.5477 0.0000e+00
      0.026      0.001     6.4742     59.725     46.272  33.825224     0.7982      9.060    65.2760 8.8519e+01     5.1483      0.025      0.037    11.5476 0.0000e+00
      0.026      0.001     6.4777     59.755     46.263  33.818407     0.7969      9.061    65.3221 8.9318e+01     5.1468      0.025      0.037    11.5470 0.0000e+00
      0.025      0.000     6.4893     59.732     46.239  33.800679     0.8038      9.059    65.2995 8.9585e+01     5.1347      0.025      0.036    11.5467 0.0000e+00
      0.024 5.5572e-08     6.4981     59.684     46.240  33.801207     0.8073      9.058    65.2612 8.9170e+01     5.1052      0.024      0.034    11.5476 0.0000e+00
      0.024 6.1130e-07     6.5019     59.655     46.273  33.824788     0.7882      9.058    65.2887 8.9950e+01     5.0289      0.023      0.033    11.5482 0.0000e+00
      0.024      0.000     6.5095     59.652     46.283  33.832020     0.7731      9.058    65.3740 8.9718e+01     5.0319      0.024      0.034    11.5475 0.0000e+00
      0.025      0.000     6.5044     59.674     46.273  33.825202     0.7825      9.058    65.4316 8.9151e+01     5.2089      0.025      0.036    11.5470 0.0000e+00
      0.025      0.001     6.4963     59.703     46.246  33.805800     0.8020      9.058    65.4700 8.9519e+01     5.3584      0.025      0.036    11.5470 0.0000e+00
      0.025      0.001     6.4951     59.736     46.221  33.787769     0.8001      9.059    65.4937 8.8840e+01     5.3369      0.024      0.035    11.5464 0.0000e+00
      0.025      0.000     6.4926     59.778     46.234  33.797527     0.7852      9.059    65.6319 8.7851e+01     5.2571      0.024      0.035    11.5464 0.0000e+00
      0.025 1.8474e-08     6.4977     59.817     46.234  33.796893     0.7965      9.059    65.7649 8.7796e+01     5.2476      0.025      0.036    11.5470 0.0000e+00
      0.025 2.0321e-07     6.5001     59.842     46.211  33.780102     0.8201      9.060    65.7246 8.8809e+01     5.2558      0.025      0.036    11.5474 0.0000e+00
      0.025 2.0321e-07     6.5028     59.842     46.218  33.784838     0.8299      9.061    65.7472 8.9117e+01     5.1849      0.025      0.036    11.5476 0.0000e+00
      0.025 1.8474e-08     6.5089     59.819     46.227  33.790710     0.8149      9.061    65.8653 8.8225e+01     5.1089      0.025      0.036    11.5476 0.0000e+00
      0.025 1.6794e-09     6.5129     59.807     46.224  33.787656     0.7966      9.061    65.8623 8.8121e+01     5.1221      0.024      0.035    11.5477 0.0000e+00
      0.025 1.5267e-10     6.5163     59.817     46.257  33.811360     0.8088      9.062    65.7973 8.8833e+01     5.1734      0.024      0.035    11.5474 0.0000e+00
      0.025 1.3880e-11     6.5171     59.817     46.273  33.823529     0.8124      9.062    65.8543 8.9635e+01     5.1480      0.024      0.034    11.5466 0.0000e+00
      0.025 1.2620e-12     6.5121     59.764     46.252  33.807900     0.7989      9.061    65.9486 8.9627e+01     5.1227      0.024      0.035    11.5456 0.0000e+00
      0.025 1.1662e-13     6.5107     59.661     46.258  33.812724     0.7788      9.060    65.9913 8.8620e+01     5.2094      0.025      0.036    11.5442 0.0000e+00
      0.025 3.1456e-14     6.5132     59.549     46.265  33.818405     0.7525      9.061    66.0265 8.8490e+01     5.3080      0.024      0.035    11.5443 0.0000e+00
      0.024 2.3226e-13     6.5155     59.448     46.256  33.813148     0.7552      9.062    66.0294 8.9012e+01     5.3927      0.024      0.035    11.5452 0.0000e+00
      0.024 2.5445e-12     6.5100     59.369     46.253  33.812609     0.7532      9.062    66.0268 8.8390e+01     5.4135      0.024      0.034    11.5451 0.0000e+00
      0.024 2.7988e-11     6.4955     59.300     46.251  33.811889     0.7279      9.063    66.0804 8.7320e+01     5.2862      0.024      0.034    11.5453 0.0000e+00
      0.024 3.0787e-10     6.4838     59.250     46.241  33.804450     0.7156      9.063    66.1617 8.7286e+01     5.1173      0.024      0.035    11.5462 0.0000e+00
      0.024 3.3866e-09     6.4707     59.241     46.217  33.786107     0.7288      9.062    66.2355 8.7995e+01     5.0457      0.024      0.035    11.5477 0.0000e+00
      0.024 3.7253e-08     6.4638     59.257     46.210  33.780444     0.7549      9.062    66.2845 8.8359e+01     5.0686      0.024      0.034    11.5495 0.0000e+00
      0.024 4.0978e-07     6.4555     59.277     46.237  33.799421     0.7487      9.062    66.3240 8.7879e+01     5.0533      0.023      0.034    11.5499 0.0000e+00
      0.024      0.000     6.4483     59.311     46.273  33.825214     0.7288      9.062    66.4546 8.7857e+01     5.0308      0.024      0.034    11.5496 0.0000e+00
      0.023      0.000     6.4486     59.374     46.291  33.838527     0.7468      9.062    66.5738 8.8602e+01     5.1040      0.023      0.033    11.5487 0.0000e+00
      0.023      0.001     6.4518     59.462     46.284  33.833496     0.7748      9.062    66.5604 8.8997e+01     5.1879      0.023      0.033    11.5477 0.0000e+00
      0.024      0.001     6.4536     59.559     46.276  33.827834     0.7765      9.062    66.5500 8.8557e+01     5.2245      0.023      0.034    11.5470 0.0000e+00
      0.025      0.001     6.4562     59.641     46.285  33.833511     0.7502      9.063    66.6210 8.7824e+01     5.2390      0.024      0.035    11.5467 0.0000e+00
      0.025      0.001     6.4637     59.706     46.294  33.838694     0.7242      9.063    66.7300 8.7539e+01     5.2616      0.025      0.036    11.5473 0.0000e+00
      0.025      0.000     6.4733     59.763     46.280  33.827045     0.7364      9.063    66.7497 8.7716e+01     5.3265      0.025      0.036    11.5475 0.0000e+00
      0.025     -0.001     6.4854     59.797     46.270  33.819555     0.7479      9.064    66.6870 8.8246e+01     5.3402      0.024      0.035    11.5473 0.0000e+00
      0.025     -0.001     6.4947     59.808     46.260  33.811589     0.7383      9.065    66.6604 8.8531e+01     5.2571      0.025      0.036    11.5468 0.0000e+00
      0.024      0.000     6.5005     59.835     46.237  33.794172     0.7371      9.065    66.6856 8.8099e+01     5.2095      0.025      0.036    11.5452 0.0000e+00
      0.023      0.001     6.5082     59.865     46.244  33.799307     0.7243      9.065    66.7341 8.7668e+01     5.2427      0.023      0.032    11.5438 0.0000e+00
      0.022      0.002     6.5130     59.858     46.259  33.810217     0.7167      9.064    66.7303 8.8095e+01     5.3167      0.021      0.030    11.5427 0.0000e+00
      0.023      0.002     6.5106     59.834     46.244  33.799192     0.7366      9.064    66.7262 8.8404e+01     5.3535      0.022      0.031    11.5421 0.0000e+00
      0.025      0.001     6.5148     59.825     46.235  33.792903     0.7661      9.065    66.7699 8.7762e+01     5.2784      0.025      0.036    11.5422 0.0000e+00
      0.029     -0.001     6.5215     59.838     46.242  33.797621     0.7820      9.065    66.8287 8.6849e+01     5.1930      0.029      0.043    11.5421 0.0000e+00
      0.029     -0.002     6.5180     59.865     46.235  33.792798     0.7697      9.066    66.9208 8.6962e+01     5.2436      0.030      0.043    11.5421 0.0000e+00
      0.025     -0.002     6.5145     59.870     46.241  33.798038     0.7758      9.066    66.9380 8.8484e+01     5.3786      0.025      0.036    11.5419 0.0000e+00
      0.021     -0.003     6.5138     59.841     46.240  33.797528     0.7974      9.066    66.8645 8.8702e+01     5.4239      0.020      0.029    11.5416 0.0000e+00
      0.020     -0.003     6.5144     59.809     46.225  33.786626     0.7895      9.066    66.8051 8.7153e+01     5.3133      0.018      0.027    11.5415 0.0000e+00
      0.022     -0.003     6.5200     59.769     46.233  33.793113     0.7814      9.066    66.9084 8.6959e+01     5.1693      0.021      0.031    11.5421 0.0000e+00
      0.023     -0.002     6.5215     59.722     46.260  33.812523     0.7909      9.066    67.0810 8.6964e+01     5.1163      0.024      0.035    11.5427 0.0000e+00
      0.022      0.000     6.5150     59.694     46.286  33.830972     0.8034      9.065    66.9997 8.6795e+01     5.1172      0.023      0.033    11.5428 0.0000e+00
      0.020      0.000     6.5131     59.698     46.279  33.825836     0.8002      9.065    66.8718 8.7645e+01     5.0775      0.020      0.028    11.5432 0.0000e+00
      0.019      0.000     6.5090     59.739     46.263  33.813875     0.7851      9.066    66.9116 8.7696e+01     5.0122      0.018      0.026    11.5436 0.0000e+00
      0.020      0.001     6.5011     59.779     46.262  33.813243     0.7949      9.067    66.9636 8.7064e+01     5.0446      0.020      0.028    11.5437 0.0000e+00
      0.022      0.002     6.4999     59.802     46.268  33.818188     0.8194      9.066    66.9847 8.7701e+01     5.1280      0.022      0.031    11.5432 0.0000e+00
      0.023      0.002     6.4976     59.832     46.257  33.810218     0.8236      9.066    66.9944 8.8462e+01     5.1328      0.022      0.032    11.5422 0.0000e+00
      0.023      0.002     6.5055     59.839     46.217  33.780330     0.8037      9.066    66.9945 8.7569e+01     5.0679      0.022      0.032    11.5421 0.0000e+00
      0.023      0.001     6.5110     59.800     46.208  33.774041     0.7785      9.066    66.9868 8.6661e+01     4.9577      0.023      0.033    11.5425 0.0000e+00
      0.023      0.001     6.5096     59.727     46.241  33.797631     0.7848      9.067    66.9007 8.6598e+01     4.9617      0.023      0.033    11.5428 0.0000e+00
      0.024      0.002     6.5165     59.665     46.261  33.811766     0.8057      9.068    66.7283 8.6604e+01     5.0483      0.024      0.035    11.5430 0.0000e+00
      0.024      0.003     6.5174     59.643     46.270  33.818052     0.8064      9.068    66.6232 8.6030e+01     5.0484      0.024      0.035    11.5431 0.0000e+00
      0.024      0.005     6.5133     59.650     46.259  33.810195     0.8016      9.068    66.6613 8.5635e+01     5.0322      0.023      0.033    11.5429 0.0000e+00
      0.024      0.006     6.5030     59.675     46.218  33.780214     0.8051      9.068    66.7595 8.5704e+01     5.0567      0.024      0.034    11.5423 0.0000e+00
      0.026      0.006     6.4948     59.704     46.208  33.772783     0.8237      9.068    66.7777 8.5604e+01     5.1404      0.025      0.036    11.5417 0.0000e+00
      0.031      0.005     6.4941     59.727     46.223  33.783789     0.8188      9.068    66.6235 8.5360e+01     5.1558      0.030      0.043    11.5413 0.0000e+00
      0.034      0.004     6.4941     59.743     46.226  33.786398     0.7798      9.069    66.4445 8.5266e+01     5.0715      0.036      0.052    11.5411 0.0000e+00
      0.034      0.002     6.4983     59.767     46.251  33.804325     0.7594      9.070    66.4192 8.4742e+01     5.0777      0.035      0.050    11.5412 0.0000e+00
      0.033     -0.001     6.5012     59.786     46.259  33.810206     0.7728      9.070    66.4897 8.4172e+01     5.2310      0.031      0.046    11.5414 0.0000e+00
      0.031     -0.002     6.5043     59.781     46.237  33.794057     0.7998      9.070    66.5231 8.4454e+01     5.3876      0.030      0.044    11.5415 0.0000e+00
      0.030     -0.001     6.5048     59.790     46.246  33.799410     0.8023      9.070    66.4790 8.4691e+01     5.3657      0.029      0.043    11.5417 0.0000e+00
      0.029      0.000     6.5072     59.820     46.264  33.811485     0.7785      9.070    66.4727 8.4780e+01     5.2054      0.029      0.041    11.5419 0.0000e+00
      0.029      0.002     6.5130     59.850     46.267  33.813159     0.7788      9.070    66.5331 8.4275e+01     5.1228      0.028      0.040    11.5417 0.0000e+00
      0.031      0.002     6.5079     59.895     46.275  33.819645     0.8063      9.070    66.6068 8.3494e+01     5.1527      0.029      0.044    11.5411 0.0000e+00
      0.033      0.002     6.5094     59.936     46.285  33.826460     0.8272      9.070    66.5891 8.2970e+01     5.1908      0.033      0.047    11.5401 0.0000e+00
      0.033      0.001     6.5156     59.958     46.292  33.832129     0.8240      9.070    66.4912 8.3393e+01     5.1744      0.034      0.049    11.5386 0.0000e+00
      0.033      0.000     6.5158     59.969     46.282  33.824738     0.8007      9.070    66.4566 8.3600e+01     5.1257      0.033      0.048    11.5379 0.0000e+00
      0.032     -0.001     6.5229     59.970     46.249  33.800531     0.7947      9.070    66.4286 8.2519e+01     5.1481      0.031      0.046    11.5385 0.0000e+00
      0.031     -0.002     6.5280     59.970     46.239  33.793233     0.8178      9.070    66.4096 8.2853e+01     5.2057      0.030      0.045    11.5389 0.0000e+00
      0.031     -0.002     6.5293     59.988     46.249  33.799941     0.8231      9.070    66.3997 8.4392e+01     5.1734      0.031      0.044    11.5390 0.0000e+00
      0.031     -0.002     6.5310     60.013     46.274  33.818189     0.8079      9.071    66.3090 8.5402e+01     5.0990      0.030      0.044    11.5391 0.0000e+00
      0.031     -0.001     6.5310     60.025     46.282  33.823531     0.8171      9.072    66.2586 8.5205e+01     5.1946      0.031      0.045    11.5388 0.0000e+00
      0.030      0.000     6.5295     60.024     46.252  33.801082     0.8433      9.073    66.3935 8.4529e+01     5.3726      0.029      0.042    11.5386 0.0000e+00
      0.030      0.001     6.5319     60.010     46.252  33.800545     0.8672      9.073    66.5632 8.4494e+01     5.3725      0.028      0.041    11.5385 0.0000e+00
      0.030      0.001     6.5367     59.984     46.275  33.817034     0.8643      9.073    66.5902 8.3444e+01     5.2616      0.030      0.043    11.5381 0.0000e+00
      0.031      0.001     6.5368     59.924     46.265  33.810114     0.8166      9.073    66.4610 8.2125e+01     5.1933      0.031      0.044    11.5377 0.0000e+00
      0.032      0.001     6.5376     59.813     46.224  33.780322     0.7721      9.073    66.2921 8.2525e+01     5.2297      0.032      0.047    11.5372 0.0000e+00
      0.032      0.001     6.5354     59.680     46.215  33.774042     0.7756      9.073    66.1825 8.3219e+01     5.3260      0.032      0.046    11.5368 0.0000e+00
      0.031      0.000     6.5335     59.563     46.248  33.797642     0.7930      9.073    66.1681 8.3139e+01     5.3330      0.031      0.044    11.5367 0.0000e+00
      0.031 5.5882e-08     6.5286     59.480     46.268  33.811881     0.7823      9.073    66.2036 8.2776e+01     5.2452      0.030      0.044    11.5371 0.0000e+00
      0.031 6.1470e-07     6.5144     59.427     46.279  33.819312     0.7632      9.073    66.2679 8.2998e+01     5.1877      0.031      0.044    11.5374 0.0000e+00
      0.031      0.000     6.4985     59.390     46.287  33.824049     0.7627      9.073    66.4291 8.3543e+01     5.2174      0.030      0.044    11.5377 0.0000e+00
      0.032      0.000     6.4848     59.383     46.264  33.805707     0.7846      9.073    66.5191 8.3722e+01     5.2630      0.031      0.045    11.5374 0.0000e+00
      0.032      0.001     6.4763     59.413     46.241  33.787870     0.8022      9.074    66.4946 8.4050e+01     5.1927      0.032      0.046    11.5367 0.0000e+00
      0.032      0.001     6.4717     59.442     46.256  33.798730     0.7932      9.076    66.4781 8.3973e+01     5.0510      0.031      0.045    11.5358 0.0000e+00
      0.032      0.001     6.4670     59.472     46.273  33.810119     0.7912      9.076    66.4909 8.3297e+01     5.0185      0.031      0.045    11.5345 0.0000e+00
      0.032      0.001     6.4651     59.534     46.258  33.798674     0.8125      9.075    66.4777 8.3207e+01     5.1073      0.031      0.045    11.5332 0.0000e+00
      0.033      0.001     6.4719     59.599     46.242  33.787242     0.8257      9.074    66.4037 8.3044e+01     5.1683      0.032      0.046    11.5323 0.0000e+00
      0.034      0.001     6.4747     59.649     46.257  33.798786     0.8090      9.075    66.4572 8.1342e+01     5.1072      0.033      0.048    11.5316 0.0000e+00
      0.034      0.000     6.4747     59.678     46.272  33.811365     0.7769      9.075    66.6083 7.9879e+01     5.0168      0.033      0.048    11.5302 0.0000e+00
      0.033 5.5571e-08     6.4853     59.668     46.272  33.812448     0.7627      9.074    66.6821 8.0909e+01     4.9980      0.032      0.047    11.5296 0.0000e+00
      0.033 6.1128e-07     6.4920     59.655     46.270  33.811876     0.7786      9.073    66.7473 8.2143e+01     5.0503      0.032      0.046    11.5302 0.0000e+00
      0.032      0.000     6.4967     59.642     46.260  33.804449     0.8101      9.073    66.7938 8.1889e+01     5.1703      0.032      0.046    11.5310 0.0000e+00
      0.032      0.000     6.5029     59.621     46.235  33.786098     0.8116      9.074    66.7284 8.2032e+01     5.2546      0.031      0.044    11.5323 0.0000e+00
      0.033      0.001     6.4974     59.644     46.227  33.780331     0.7805      9.074    66.5590 8.2955e+01     5.2492      0.031      0.046    11.5340 0.0000e+00
      0.033      0.001     6.4963     59.704     46.252  33.798162     0.7831      9.074    66.4665 8.2590e+01     5.2411      0.033      0.048    11.5348 0.0000e+00
      0.033      0.000     6.4977     59.744     46.270  33.811361     0.8091      9.074    66.5558 8.1549e+01     5.1914      0.033      0.047    11.5349 0.0000e+00
      0.033      0.000     6.4902     59.759     46.271  33.813016     0.8039      9.074    66.6063 8.1309e+01     5.0575      0.034      0.049    11.5345 0.0000e+00
      0.033     -0.001     6.4933     59.746     46.277  33.818177     0.7865      9.073    66.5603 8.1592e+01     4.9549      0.033      0.048    11.5342 0.0000e+00
      0.032     -0.002     6.5046     59.665     46.264  33.810320     0.7915      9.073    66.5170 8.2287e+01     4.9757      0.032      0.046    11.5345 0.0000e+00
      0.032     -0.002     6.5073     59.541     46.224  33.781468     0.8139      9.073    66.5124 8.2297e+01     5.1046      0.031      0.045    11.5344 0.0000e+00
      0.031     -0.002     6.5081     59.448     46.229  33.786554     0.8158      9.073    66.5902 8.1982e+01     5.1463      0.030      0.044    11.5348 0.0000e+00
      0.031     -0.001     6.5105     59.411     46.258  33.808377     0.7896      9.073    66.5981 8.1592e+01     5.0365      0.030      0.044    11.5361 0.0000e+00
      0.031     -0.001     6.5000     59.417     46.234  33.791546     0.7713      9.073    66.5214 8.0509e+01     5.0400      0.030      0.043    11.5372 0.0000e+00
      0.031      0.000     6.4816     59.435     46.209  33.773388     0.7781      9.073    66.5235 8.0572e+01     5.2229      0.029      0.042    11.5384 0.0000e+00
      0.031 -1.878e-08     6.4717     59.453     46.216  33.779164     0.7961      9.073    66.5373 8.2159e+01     5.3690      0.030      0.043    11.5397 0.0000e+00
      0.031 -2.066e-07     6.4674     59.477     46.242  33.797934     0.7979      9.073    66.5171 8.3162e+01     5.3722      0.031      0.044    11.5404 0.0000e+00
      0.031 -2.063e-07     6.4699     59.494     46.258  33.809999     0.7838      9.072    66.4510 8.2557e+01     5.2613      0.030      0.044    11.5411 0.0000e+00
      0.031 -1.540e-08     6.4724     59.514     46.242  33.798151     0.7916      9.072    66.4262 8.0847e+01     5.1554      0.030      0.043    11.5421 0.0000e+00
      0.031 3.5517e-08     6.4725     59.536     46.218  33.781577     0.8167      9.072    66.4762 7.9752e+01     5.1511      0.030      0.044    11.5424 0.0000e+00
      0.031 4.0932e-07     6.4779     59.555     46.243  33.799938     0.8213      9.072    66.4530 8.0262e+01     5.1404      0.031      0.044    11.5422 0.0000e+00
      0.031      0.000     6.4775     59.576     46.283  33.829817     0.8055      9.073    66.4898 8.2124e+01     5.0604      0.030      0.044    11.5421 0.0000e+00
      0.031      0.000     6.4800     59.581     46.278  33.825609     0.7838      9.073    66.4908 8.3314e+01     5.0045      0.030      0.043    11.5424 0.0000e+00
      0.031      0.001     6.4837     59.575     46.261  33.812505     0.7841      9.074    66.3784 8.2140e+01     5.0446      0.030      0.044    11.5431 0.0000e+00
      0.031      0.001     6.4834     59.597     46.241  33.798275     0.8100      9.074    66.4213 8.1283e+01     5.1019      0.030      0.044    11.5437 0.0000e+00
      0.031      0.001     6.4881     59.662     46.216  33.780442     0.8224      9.074    66.4078 8.1813e+01     5.1165      0.031      0.044    11.5439 0.0000e+00
      0.032      0.000     6.4883     59.724     46.225  33.787232     0.7914      9.073    66.2140 8.1994e+01     5.1189      0.031      0.044    11.5436 0.0000e+00
      0.032     -0.001     6.4856     59.746     46.265  33.816919     0.7433      9.073    66.1438 8.1122e+01     5.0958      0.032      0.046    11.5430 0.0000e+00
      0.032     -0.001     6.4868     59.755     46.272  33.822156     0.7399      9.075    66.2473 8.0516e+01     5.1108      0.032      0.046    11.5431 0.0000e+00
      0.031     -0.001     6.4964     59.785     46.224  33.787116     0.7593      9.075    66.3473 8.2729e+01     5.1302      0.031      0.045    11.5438 0.0000e+00
      0.030     -0.001     6.5057     59.813     46.206  33.773917     0.7442      9.074    66.3194 8.4476e+01     5.0565      0.029      0.043    11.5442 0.0000e+00
      0.029     -0.001     6.5059     59.799     46.227  33.789461     0.7162      9.074    66.2544 8.4102e+01     4.9716      0.028      0.041    11.5444 0.0000e+00
      0.029     -0.001     6.5046     59.770     46.220  33.784724     0.7114      9.075    66.2500 8.4353e+01     4.9915      0.028      0.041    11.5444 0.0000e+00
      0.030      0.000     6.5092     59.760     46.212  33.780091     0.7279      9.075    66.2668 8.4704e+01     5.0917      0.031      0.044    11.5443 0.0000e+00
      0.031      0.001     6.5156     59.756     46.233  33.796881     0.7326      9.075    66.2857 8.4463e+01     5.1243      0.030      0.045    11.5441 0.0000e+00
      0.030      0.001     6.5115     59.754     46.233  33.797401     0.7106      9.075    66.2193 8.3984e+01     5.0443      0.029      0.043    11.5444 0.0000e+00
      0.030      0.001     6.5061     59.753     46.217  33.786386     0.7114      9.076    66.1526 8.3753e+01     5.0459      0.029      0.042    11.5453 0.0000e+00
      0.031      0.000     6.5070     59.739     46.222  33.790595     0.7416      9.076    66.1675 8.3378e+01     5.1783      0.030      0.042    11.5464 0.0000e+00
      0.032      0.000     6.5057     59.693     46.214  33.784837     0.7685      9.075    66.1411 8.3281e+01     5.2440      0.031      0.044    11.5473 0.0000e+00
      0.032      0.001     6.5056     59.613     46.209  33.780214     0.7865      9.075    66.0921 8.3122e+01     5.1572      0.031      0.045    11.5481 0.0000e+00
      0.031      0.001     6.5057     59.522     46.234  33.798151     0.7848      9.075    66.0920 8.2977e+01     5.0181      0.030      0.043    11.5492 0.0000e+00
      0.031      0.001     6.5051     59.435     46.252  33.811369     0.7888      9.076    66.1386 8.3136e+01     5.0301      0.029      0.042    11.5498 0.0000e+00
      0.031      0.001     6.5007     59.364     46.255  33.813137     0.8021      9.076    66.1391 8.3023e+01     5.0978      0.030      0.043    11.5499 0.0000e+00
      0.031      0.001     6.4901     59.314     46.263  33.819537     0.8042      9.077    66.0984 8.2784e+01     5.0857      0.031      0.045    11.5492 0.0000e+00
      0.032      0.000     6.4805     59.305     46.271  33.825305     0.8061      9.077    66.0772 8.1842e+01     5.0537      0.032      0.046    11.5483 0.0000e+00
      0.032 1.7088e-08     6.4699     59.345     46.264  33.819430     0.7914      9.077    66.0544 8.1160e+01     4.9840      0.031      0.045    11.5483 0.0000e+00
      0.032 1.8797e-07     6.4630     59.422     46.255  33.811942     0.7853      9.077    65.9952 8.2055e+01     5.0287      0.032      0.046    11.5484 0.0000e+00
      0.032 1.8797e-07     6.4558     59.538     46.236  33.798213     0.8066      9.076    65.9646 8.3789e+01     5.1167      0.031      0.045    11.5484 0.0000e+00
      0.031 1.7088e-08     6.4545     59.658     46.212  33.780324     0.8163      9.076    66.0279 8.3662e+01     5.0562      0.030      0.043    11.5484 0.0000e+00
      0.031 1.5535e-09     6.4606     59.752     46.221  33.785984     0.8022      9.076    66.0712 8.1880e+01     5.0153      0.031      0.045    11.5478 0.0000e+00
      0.032 1.4122e-10     6.4670     59.815     46.246  33.803191     0.7774      9.077    66.0584 8.1385e+01     5.0323      0.032      0.046    11.5472 0.0000e+00
      0.032 1.2817e-11     6.4823     59.846     46.239  33.798038     0.7753      9.077    66.0455 8.1871e+01     5.1248      0.031      0.045    11.5467 0.0000e+00
      0.032 9.3600e-13     6.4970     59.862     46.225  33.787126     0.7841      9.077    66.0010 8.1881e+01     5.2805      0.032      0.046    11.5461 0.0000e+00
      0.032 -2.437e-12     6.5065     59.869     46.241  33.798151     0.7761      9.077    65.9506 8.0272e+01     5.3088      0.032      0.046    11.5452 0.0000e+00
      0.032 -2.796e-11     6.5147     59.857     46.250  33.804448     0.7701      9.077    65.9526 7.9967e+01     5.2623      0.031      0.045    11.5446 0.0000e+00
      0.032 -3.077e-10     6.5164     59.837     46.244  33.799815     0.7863      9.077    65.9386 8.1861e+01     5.2989      0.031      0.045    11.5441 0.0000e+00
      0.032 -3.384e-09     6.5183     59.823     46.253  33.805583     0.8139      9.078    65.9538 8.1736e+01     5.4095      0.032      0.046    11.5437 0.0000e+00
      0.033 -3.723e-08     6.5200     59.782     46.260  33.810736     0.8125      9.078    65.9638 8.1099e+01     5.4044      0.032      0.046    11.5430 0.0000e+00
      0.033 -4.095e-07     6.5181     59.696     46.244  33.798682     0.7857      9.078    65.8878 8.2409e+01     5.2709      0.033      0.047    11.5424 0.0000e+00
      0.033      0.000     6.5146     59.595     46.228  33.786731     0.8069      9.078    65.8956 8.2816e+01     5.1960      0.032      0.046    11.5422 0.0000e+00
      0.033      0.000     6.5151     59.491     46.237  33.793123     0.8857      9.078    65.9718 8.1781e+01     5.1818      0.032      0.047    11.5415 0.0000e+00
      0.032     -0.001     6.5128     59.423     46.264  33.812523     0.9310      9.079    65.9490 8.2384e+01     5.2018      0.032      0.046    11.5409 0.0000e+00
      0.032     -0.001     6.4996     59.405     46.289  33.830961     0.9130      9.081    65.8775 8.3449e+01     5.1647      0.032      0.046    11.5410 0.0000e+00
      0.032     -0.001     6.4904     59.388     46.282  33.825713     0.8845      9.081    65.8815 8.2787e+01     5.0743      0.031      0.045    11.5409 0.0000e+00
      0.032     -0.000     6.4767     59.359     46.264  33.812513     0.8781      9.081    65.8257 8.1233e+01     5.0997      0.031      0.045    11.5407 0.0000e+00
      0.032 -1.861e-08     6.4673     59.342     46.244  33.798255     0.8851      9.081    65.7192 8.1286e+01     5.1644      0.031      0.045    11.5408 0.0000e+00
      0.032 -2.047e-07     6.4698     59.339     46.219  33.780215     0.8858      9.080    65.7132 8.2014e+01     5.1732      0.031      0.045    11.5409 0.0000e+00
      0.032 -2.046e-07     6.4677     59.353     46.225  33.784725     0.8699      9.080    65.7517 8.1868e+01     5.1386      0.031      0.045    11.5406 0.0000e+00
      0.032 -1.660e-08     6.4630     59.396     46.230  33.789348     0.8424      9.081    65.8407 8.2045e+01     5.1215      0.032      0.046    11.5407 0.0000e+00
      0.032 3.5256e-09     6.4612     59.451     46.207  33.772659     0.8368      9.081    65.9295 8.2030e+01     5.2054      0.032      0.046    11.5410 0.0000e+00
      0.032 3.8782e-08     6.4614     59.514     46.207  33.773282     0.8603      9.081    65.8788 8.1609e+01     5.2306      0.032      0.046    11.5412 0.0000e+00
      0.032 4.2660e-07     6.4612     59.624     46.239  33.796882     0.8691      9.081    65.8298 8.1187e+01     5.1188      0.031      0.045    11.5415 0.0000e+00
      0.033      0.000     6.4672     59.782     46.249  33.804220     0.8511      9.081    65.9390 8.0781e+01     5.0837      0.032      0.047    11.5418 0.0000e+00
      0.033      0.000     6.4740     59.935     46.242  33.798556     0.8345      9.080    65.9953 8.1555e+01     5.2154      0.032      0.046    11.5425 0.0000e+00
      0.032      0.001     6.4779     60.053     46.232  33.791842     0.8437      9.080    65.9082 8.3712e+01     5.3794      0.031      0.045    11.5432 0.0000e+00
      0.032      0.001     6.4898     60.138     46.223  33.786496     0.8707      9.081    65.8322 8.3686e+01     5.3931      0.032      0.046    11.5434 0.0000e+00
      0.033      0.001     6.5100     60.171     46.238  33.797356     0.8775      9.081    65.8515 8.1566e+01     5.2782      0.032      0.046    11.5431 0.0000e+00
      0.034      0.001     6.5282     60.141     46.237  33.796264     0.8595      9.082    65.8829 7.9854e+01     5.2546      0.033      0.048    11.5427 0.0000e+00
      0.034      0.001     6.5395     60.061     46.206  33.773292     0.8449      9.082    65.8670 7.8474e+01     5.3468      0.033      0.048    11.5432 0.0000e+00
      0.033      0.001     6.5502     59.947     46.206  33.773387     0.8502      9.083    65.9180 7.8402e+01     5.4020      0.033      0.047    11.5437 0.0000e+00
      0.033      0.001     6.5547     59.823     46.239  33.797407     0.8577      9.083    66.0694 7.8990e+01     5.3751      0.032      0.046    11.5439 0.0000e+00
      0.033      0.001     6.5502     59.721     46.256  33.809940     0.8437      9.082    66.1484 7.8210e+01     5.2950      0.033      0.047    11.5438 0.0000e+00
      0.034      0.001     6.5411     59.655     46.240  33.798032     0.8462      9.081    66.0987 7.6326e+01     5.2869      0.034      0.049    11.5437 0.0000e+00
      0.034      0.001     6.5277     59.595     46.215  33.780318     0.8804      9.081    66.0707 7.5189e+01     5.3803      0.034      0.049    11.5436 0.0000e+00
      0.034      0.001     6.5132     59.531     46.222  33.786096     0.8914      9.081    66.0682 7.5353e+01     5.3992      0.034      0.049    11.5433 0.0000e+00
      0.034      0.001     6.5005     59.466     46.247  33.804449     0.8621      9.082    65.9821 7.5963e+01     5.3105      0.034      0.049    11.5434 0.0000e+00
      0.035      0.000     6.4960     59.406     46.257  33.811880     0.8335      9.083    65.8900 7.6751e+01     5.2307      0.034      0.049    11.5435 0.0000e+00
      0.035 1.8627e-08     6.4892     59.375     46.257  33.812503     0.8451      9.083    65.9012 7.6525e+01     5.2539      0.035      0.050    11.5441 0.0000e+00
      0.035 2.0490e-07     6.4814     59.365     46.257  33.811983     0.8776      9.084    65.9455 7.6114e+01     5.3175      0.034      0.049    11.5452 0.0000e+00
      0.035 2.0488e-07     6.4755     59.363     46.249  33.805592     0.8860      9.084    65.9952 7.7219e+01     5.2825      0.034      0.050    11.5455 0.0000e+00
      0.034 1.8306e-08     6.4662     59.384     46.241  33.798671     0.8631      9.083    65.9863 7.8463e+01     5.1386      0.033      0.049    11.5457 0.0000e+00
      0.034 -1.845e-09     6.4640     59.420     46.231  33.791750     0.8424      9.083    65.9247 7.8997e+01     5.0118      0.033      0.047    11.5456 0.0000e+00
      0.034 -3.722e-08     6.4641     59.461     46.222  33.785358     0.8524      9.083    65.9377 7.8820e+01     5.0133      0.033      0.048    11.5450 0.0000e+00
      0.035 -4.095e-07     6.4621     59.529     46.221  33.784829     0.8509      9.084    65.9713 7.8367e+01     5.0545      0.035      0.051    11.5445 0.0000e+00
      0.036      0.000     6.4653     59.629     46.221  33.785358     0.8073      9.084    65.9870 7.9163e+01     5.0317      0.036      0.052    11.5442 0.0000e+00
      0.036      0.000     6.4704     59.743     46.229  33.791750     0.7748      9.085    65.9550 8.1173e+01     4.9768      0.035      0.051    11.5437 0.0000e+00
      0.035     -0.001     6.4730     59.847     46.239  33.798671     0.7736      9.086    65.8434 8.2133e+01     4.9376      0.034      0.050    11.5437 0.0000e+00
      0.034     -0.001     6.4802     59.939     46.249  33.805593     0.7850      9.086    65.7559 8.2710e+01     4.9667      0.034      0.049    11.5441 0.0000e+00
      0.034     -0.001     6.4919     60.008     46.258  33.811995     0.7956      9.086    65.7572 8.3803e+01     5.0218      0.034      0.049    11.5446 0.0000e+00
      0.034     -0.000     6.5058     60.043     46.258  33.812629     0.7856      9.086    65.7728 8.4717e+01     5.0238      0.033      0.048    11.5451 0.0000e+00
      0.035      0.001     6.5166     60.048     46.259  33.813263     0.7805      9.085    65.8590 8.5251e+01     5.0591      0.034      0.049    11.5449 0.0000e+00
      0.035      0.001     6.5271     60.024     46.267  33.819664     0.8007      9.085    66.0251 8.3920e+01     5.1748      0.034      0.049    11.5444 0.0000e+00
      0.035      0.001     6.5357     59.976     46.277  33.826577     0.8142      9.086    66.0601 8.2058e+01     5.2269      0.035      0.050    11.5446 0.0000e+00
      0.036      0.001     6.5383     59.928     46.286  33.833393     0.8022      9.086    66.0244 8.2185e+01     5.1427      0.035      0.051    11.5453 0.0000e+00
      0.036      0.000     6.5393     59.915     46.293  33.838631     0.7800      9.086    66.0238 8.3410e+01     5.0448      0.035      0.051    11.5456 0.0000e+00
      0.035     -0.001     6.5364     59.929     46.277  33.826471     0.7867      9.086    65.9667 8.4001e+01     5.0688      0.034      0.050    11.5455 0.0000e+00
      0.035     -0.002     6.5310     59.942     46.258  33.813253     0.8167      9.086    65.8502 8.4411e+01     5.1252      0.034      0.050    11.5453 0.0000e+00
      0.035     -0.002     6.5229     59.957     46.248  33.805708     0.8267      9.086    65.7342 8.4685e+01     5.1110      0.034      0.050    11.5452 0.0000e+00
      0.034     -0.002     6.5224     59.987     46.238  33.798693     0.8152      9.086    65.6824 8.4559e+01     5.0685      0.033      0.048    11.5451 0.0000e+00
      0.033     -0.002     6.5258     60.019     46.228  33.791877     0.7951      9.087    65.7397 8.4014e+01     4.9869      0.032      0.046    11.5454 0.0000e+00
      0.033     -0.001     6.5265     60.042     46.220  33.786741     0.7914      9.087    65.8253 8.2087e+01     4.9781      0.032      0.046    11.5456 0.0000e+00
      0.033      0.000     6.5276     60.082     46.236  33.800044     0.8121      9.086    65.8571 8.2170e+01     5.0299      0.033      0.047    11.5455 0.0000e+00
      0.033      0.001     6.5307     60.115     46.268  33.825836     0.8130      9.086    65.8657 8.4551e+01     4.9654      0.031      0.045    11.5456 0.0000e+00
      0.033      0.002     6.5367     60.094     46.292  33.844812     0.7852      9.086    65.8433 8.5886e+01     4.9150      0.031      0.045    11.5456 0.0000e+00
      0.034      0.002     6.5352     60.059     46.285  33.839149     0.7677      9.086    65.7582 8.6499e+01     5.0354      0.033      0.048    11.5468 0.0000e+00
      0.036      0.002     6.5409     60.051     46.260  33.820807     0.7841      9.087    65.6114 8.5879e+01     5.1916      0.035      0.051    11.5490 0.0000e+00
      0.036      0.002     6.5483     60.041     46.251  33.813377     0.8084      9.088    65.5305 8.3747e+01     5.1974      0.036      0.052    11.5513 0.0000e+00
      0.036      0.002     6.5426     60.008     46.251  33.812752     0.7958      9.088    65.5547 8.2203e+01     5.0712      0.035      0.051    11.5529 0.0000e+00
      0.036      0.001     6.5357     59.953     46.252  33.813253     0.7815      9.088    65.5600 8.1574e+01     5.0325      0.035      0.051    11.5531 0.0000e+00
      0.036      0.001     6.5379     59.858     46.262  33.819434     0.7930      9.089    65.5940 8.2056e+01     5.1395      0.035      0.051    11.5525 0.0000e+00
      0.036      0.001     6.5380     59.770     46.269  33.824049     0.8023      9.090    65.7081 8.3471e+01     5.1695      0.036      0.052    11.5516 0.0000e+00
      0.036      0.001     6.5323     59.718     46.244  33.805598     0.8100      9.090    65.8211 8.3902e+01     5.0877      0.035      0.051    11.5507 0.0000e+00
      0.036      0.001     6.5306     59.672     46.219  33.786679     0.8034      9.089    65.8415 8.4133e+01     5.0047      0.036      0.052    11.5502 0.0000e+00
      0.037      0.001     6.5158     59.633     46.218  33.785630     0.7972      9.088    65.7825 8.3864e+01     4.9862      0.036      0.053    11.5498 0.0000e+00
      0.037      0.000     6.5046     59.606     46.229  33.792919     0.8105      9.089    65.7103 8.3714e+01     5.0685      0.037      0.055    11.5494 0.0000e+00
      0.037      0.000     6.5027     59.594     46.255  33.811362     0.8144      9.089    65.7432 8.4024e+01     5.1452      0.037      0.054    11.5488 0.0000e+00
      0.037     -0.001     6.4962     59.628     46.265  33.818282     0.8019      9.089    65.8361 8.3591e+01     5.1281      0.036      0.052    11.5482 0.0000e+00
      0.037     -0.001     6.4919     59.697     46.258  33.813147     0.7844      9.090    65.8009 8.3999e+01     5.0667      0.036      0.052    11.5475 0.0000e+00
      0.036      0.000     6.4902     59.767     46.258  33.812722     0.7858      9.090    65.7482 8.5666e+01     5.0865      0.035      0.051    11.5465 0.0000e+00
      0.035      0.003     6.4861     59.830     46.259  33.813148     0.8108      9.090    65.8010 8.6270e+01     5.1627      0.034      0.050    11.5457 0.0000e+00
      0.035      0.006     6.4908     59.899     46.266  33.818292     0.8123      9.090    65.8361 8.5712e+01     5.1339      0.033      0.048    11.5452 0.0000e+00
      0.037      0.008     6.5005     59.962     46.258  33.811475     0.7876      9.089    65.8295 8.4963e+01     5.0449      0.035      0.051    11.5451 0.0000e+00
      0.041      0.009     6.5078     59.995     46.234  33.794172     0.7778      9.089    65.8930 8.3009e+01     5.0092      0.040      0.057    11.5452 0.0000e+00
      0.046      0.012     6.5138     60.005     46.241  33.799421     0.7854      9.090    66.0014 7.9928e+01     5.0440      0.046      0.066    11.5452 0.0000e+00
      0.048      0.021     6.5216     60.003     46.256  33.811484     0.8053      9.090    66.0222 7.6971e+01     5.1243      0.050      0.072    11.5449 0.0000e+00
      0.048      0.034     6.5309     59.988     46.257  33.813139     0.8095      9.090    65.9717 7.5861e+01     5.1603      0.048      0.070    11.5440 0.0000e+00
      0.050      0.046     6.5330     59.950     46.264  33.819425     0.7867      9.089    65.9935 7.5342e+01     5.1387      0.045      0.065    11.5439 0.0000e+00
      0.064      0.054     6.5344     59.900     46.269  33.824048     0.7708      9.089    66.1132 7.3172e+01     5.1357      0.056      0.080    11.5442 0.0000e+00
      0.091      0.053     6.5331     59.853     46.243  33.805592     0.7749      9.089    66.6451 7.1284e+01     5.1926      0.090      0.131    11.5449 0.0000e+00
      0.119      0.037     6.5330     59.815     46.218  33.786615     0.7863      9.090    71.4782 7.0584e+01     5.1771      0.122      0.177    11.5463 0.0000e+00
      0.137      0.005     6.5271     59.793     46.216  33.784932     0.7842      9.091    76.1095 7.0321e+01     5.0162      0.138      0.199    11.5475 0.0000e+00
      0.141     -0.040     6.5211     59.761     46.217  33.785242     0.7829      9.091    72.2234 7.0926e+01     4.9561      0.145      0.210    11.5484 0.0000e+00
      0.125     -0.085     6.5163     59.702     46.225  33.790377     0.7876      9.090    68.1128 7.2461e+01     5.0644      0.133      0.192    11.5488 0.0000e+00
      0.085     -0.120     6.5109     59.651     46.217  33.783569     0.7903      9.090    68.3097 7.5033e+01     5.1643      0.089      0.128    11.5486 0.0000e+00
      0.031     -0.137     6.5103     59.621     46.194  33.766370     0.7909      9.090    68.2371 7.7915e+01     5.1395      0.029      0.042    11.5485 0.0000e+00
     -0.021     -0.135     6.5082     59.554     46.202  33.772762     0.7789      9.088    68.0092 7.4763e+01     5.0034     -0.025     -0.037    11.5484 0.0000e+00
     -0.060     -0.116     6.5000     59.431     46.234  33.797412     0.7866      9.086    67.9639 7.0710e+01     4.9877     -0.066     -0.095    11.5477 0.0000e+00
     -0.084     -0.084     6.4920     59.318     46.250  33.810621     0.8171      9.085    67.9478 7.3722e+01     5.1550     -0.085     -0.125    11.5463 0.0000e+00
     -0.097     -0.049     6.4942     59.276     46.242  33.805581     0.8310      9.084    68.5891 7.2987e+01     5.3175     -0.096     -0.139    11.5449 0.0000e+00
     -0.102     -0.019     6.4875     59.308     46.235  33.799927     0.8214      9.084    73.5658 6.9527e+01     5.3476     -0.103     -0.150    11.5453 0.0000e+00
     -0.100      0.000     6.4700     59.403     46.244  33.805706     0.7934      9.085    77.8739 7.2176e+01     5.2446     -0.101     -0.147    11.5475 0.0000e+00
     -0.091      0.009     6.4544     59.560     46.253  33.812004     0.7744      9.085    73.4429 8.0905e+01     5.1661     -0.090     -0.130    11.5495 0.0000e+00
     -0.081      0.006     6.4507     59.783     46.254  33.812628     0.7921      9.085    68.6030 9.1228e+01     5.1501     -0.076     -0.110    11.5502 0.0000e+00
     -0.076     -0.013     6.4544     60.015     46.255  33.813253     0.8079      9.085    67.9670 9.7064e+01     5.0852     -0.071     -0.103    11.5498 0.0000e+00
     -0.077     -0.043     6.4654     60.168     46.264  33.819559     0.7900      9.085    67.7318 9.8787e+01     4.9961     -0.076     -0.110    11.5489 0.0000e+00
     -0.083     -0.080     6.4815     60.217     46.272  33.825431     0.7750      9.085    67.7382 1.0423e+02     4.9609     -0.075     -0.110    11.5483 0.0000e+00
     -0.106     -0.117     6.5071     60.131     46.266  33.820801     0.7938      9.087    68.4746 1.2062e+02     5.0010     -0.092     -0.132    11.5481 0.0000e+00
     -0.151     -0.148     6.5392     59.922     46.275  33.827041     0.8257      9.089    75.5172 1.4021e+02     5.0720     -0.146     -0.213    11.5481 0.0000e+00
     -0.205     -0.167     6.5533     59.661     46.290  33.837423     0.8193      9.093    87.8446 1.5616e+02     5.1019     -0.204     -0.298    11.5480 0.0000e+00
     -0.256     -0.172     6.5620     59.391     46.266  33.819438     0.7823      9.097    93.8856 1.7441e+02     5.0879     -0.248     -0.361    11.5478 0.0000e+00
     -0.309     -0.163     6.5527     59.167     46.239  33.799927     0.7785      9.099    93.7510 1.9302e+02     5.1429     -0.303     -0.441    11.5474 0.0000e+00
     -0.356     -0.144     6.5246     59.025     46.228  33.791852     0.8240      9.100    93.1868 2.1166e+02     5.2888     -0.358     -0.519    11.5470 0.0000e+00
     -0.385     -0.120     6.4973     58.952     46.220  33.785252     0.8739      9.101    92.3974 2.3144e+02     5.3488     -0.382     -0.554    11.5467 0.0000e+00
     -0.402     -0.092     6.4640     58.931     46.218  33.783570     0.8831      9.101    91.4342 2.4110e+02     5.2880     -0.390     -0.566    11.5463 0.0000e+00
     -0.423     -0.062     6.4384     58.937     46.202  33.771513     0.8852      9.102    90.5749 2.4172e+02     5.2367     -0.415     -0.602    11.5463 0.0000e+00
     -0.444     -0.032     6.4242     58.954     46.195  33.766360     0.9153      9.102    89.5798 2.4077e+02     5.2062     -0.442     -0.641    11.5465 0.0000e+00
     -0.452     -0.006     6.4166     59.007     46.218  33.784712     0.9388      9.101    88.0061 2.3957e+02     5.1584     -0.448     -0.650    11.5457 0.0000e+00
     -0.447      0.018     6.4152     59.103     46.242  33.803074     0.9373      9.099    86.3451 2.3969e+02     5.1034     -0.442     -0.641    11.5447 0.0000e+00
     -0.432      0.039     6.4176     59.173     46.235  33.798036     0.9048      9.098    85.1561 2.3952e+02     5.0190     -0.425     -0.617    11.5444 0.0000e+00
     -0.413      0.054     6.4177     59.171     46.220  33.787237     0.8703      9.098    83.5254 2.3844e+02     4.9922     -0.404     -0.586    11.5449 0.0000e+00
     -0.395      0.062     6.4213     59.110     46.236  33.799406     0.8693      9.098    81.7711 2.3692e+02     5.0530     -0.387     -0.561    11.5463 0.0000e+00
     -0.379      0.063     6.4370     59.052     46.262  33.818279     0.8768      9.097    79.0017 2.3433e+02     5.1041     -0.372     -0.540    11.5473 0.0000e+00
     -0.363      0.059     6.4455     59.042     46.271  33.825087     0.8689      9.096    73.8741 2.3187e+02     5.0986     -0.355     -0.516    11.5477 0.0000e+00
     -0.348      0.054     6.4454     59.048     46.262  33.818279     0.8494      9.095    70.4504 2.3067e+02     5.0197     -0.339     -0.493    11.5479 0.0000e+00
     -0.335      0.048     6.4353     59.051     46.236  33.799408     0.8495      9.095    69.9567 2.2887e+02     5.0378     -0.328     -0.475    11.5481 0.0000e+00
     -0.323      0.041     6.4261     59.085     46.219  33.787249     0.8695      9.095    72.4648 2.2349e+02     5.1463     -0.317     -0.459    11.5483 0.0000e+00
     -0.313      0.036     6.4278     59.176     46.234  33.798160     0.8662      9.095    75.0500 2.1556e+02     5.1370     -0.306     -0.444    11.5484 0.0000e+00
     -0.305      0.032     6.4300     59.347     46.243  33.804448     0.8434      9.095    72.6487 2.1038e+02     5.0616     -0.298     -0.432    11.5485 0.0000e+00
     -0.300      0.030     6.4273     59.580     46.236  33.799824     0.8349      9.094    72.5125 2.0891e+02     5.0207     -0.295     -0.427    11.5484 0.0000e+00
     -0.295      0.029     6.4309     59.790     46.244  33.805696     0.8471      9.093    74.6943 2.0801e+02     5.0528     -0.290     -0.421    11.5483 0.0000e+00
     -0.287      0.029     6.4397     59.960     46.252  33.812001     0.8657      9.093    71.7543 2.0681e+02     5.1414     -0.281     -0.408    11.5485 0.0000e+00
     -0.279      0.029     6.4571     60.118     46.252  33.812617     0.8677      9.094    68.6277 2.0550e+02     5.2042     -0.272     -0.395    11.5485 0.0000e+00
     -0.271      0.026     6.4893     60.238     46.253  33.813137     0.8634      9.094    68.2086 2.0429e+02     5.2995     -0.266     -0.386    11.5485 0.0000e+00
     -0.262      0.019     6.5116     60.284     46.259  33.818289     0.8642      9.093    68.0637 2.0374e+02     5.4057     -0.258     -0.375    11.5487 0.0000e+00
     -0.254      0.010     6.5271     60.266     46.249  33.811473     0.8606      9.093    67.9950 2.0340e+02     5.3957     -0.247     -0.358    11.5490 0.0000e+00
     -0.250      0.001     6.5467     60.193     46.226  33.794170     0.8534      9.093    67.8933 2.0212e+02     5.2804     -0.242     -0.352    11.5496 0.0000e+00
     -0.255     -0.006     6.5616     60.066     46.234  33.799419     0.8349      9.092    67.6943 2.0060e+02     5.1051     -0.249     -0.361    11.5502 0.0000e+00
     -0.263     -0.012     6.5650     59.910     46.253  33.811483     0.8369      9.092    67.5688 2.0022e+02     5.0520     -0.259     -0.375    11.5507 0.0000e+00
     -0.270     -0.014     6.5629     59.754     46.256  33.813147     0.8686      9.092    67.4937 2.0032e+02     5.1508     -0.266     -0.386    11.5511 0.0000e+00
     -0.273     -0.014     6.5555     59.604     46.266  33.819529     0.8861      9.092    67.3888 2.0027e+02     5.2063     -0.269     -0.390    11.5509 0.0000e+00
     -0.275     -0.010     6.5408     59.477     46.275  33.825201     0.8734      9.092    67.3332 2.0019e+02     5.1775     -0.269     -0.391    11.5496 0.0000e+00
     -0.276     -0.005     6.5221     59.402     46.265  33.818285     0.8479      9.092    67.2513 1.9999e+02     5.0759     -0.271     -0.394    11.5478 0.0000e+00
     -0.277     -0.001     6.5058     59.395     46.239  33.799356     0.8443      9.092    67.1724 1.9984e+02     5.0360     -0.273     -0.396    11.5464 0.0000e+00
     -0.277      0.001     6.4891     59.444     46.221  33.786667     0.8552      9.092    67.4981 1.9971e+02     5.1046     -0.272     -0.395    11.5459 0.0000e+00
     -0.276      0.003     6.4734     59.494     46.227  33.791755     0.8713      9.093    71.2751 1.9927e+02     5.1547     -0.271     -0.393    11.5456 0.0000e+00
     -0.274      0.003     6.4654     59.548     46.235  33.797423     0.8970      9.095    77.9077 1.9872e+02     5.1302     -0.269     -0.389    11.5456 0.0000e+00
     -0.273      0.003     6.4635     59.638     46.227  33.791750     0.9003      9.098    81.0983 1.9847e+02     5.0468     -0.268     -0.388    11.5459 0.0000e+00
     -0.272      0.003     6.4734     59.744     46.220  33.786605     0.9032      9.099    80.9431 1.9834e+02     5.0349     -0.267     -0.387    11.5464 0.0000e+00
     -0.272      0.004     6.4781     59.820     46.236  33.798669     0.9311      9.099    80.5055 1.9816e+02     5.0542     -0.266     -0.385    11.5466 0.0000e+00
     -0.272      0.005     6.4809     59.859     46.251  33.810734     0.9381      9.098    79.9374 1.9811e+02     5.0064     -0.267     -0.386    11.5467 0.0000e+00
     -0.271      0.006     6.4925     59.892     46.242  33.805591     0.9136      9.098    79.4936 1.9818e+02     5.0038     -0.267     -0.387    11.5469 0.0000e+00
     -0.269      0.006     6.5060     59.937     46.234  33.799927     0.8924      9.099    79.2704 1.9812e+02     5.0569     -0.264     -0.383    11.5473 0.0000e+00
     -0.265      0.005     6.5151     59.981     46.242  33.805705     0.8907      9.100    79.1318 1.9798e+02     5.1027     -0.260     -0.377    11.5479 0.0000e+00
     -0.263      0.004     6.5165     60.011     46.252  33.812002     0.8920      9.101    78.9363 1.9783e+02     5.1135     -0.258     -0.374    11.5489 0.0000e+00
     -0.263      0.003     6.5198     60.022     46.254  33.812617     0.8750      9.101    78.5404 1.9750e+02     5.0504     -0.257     -0.373    11.5503 0.0000e+00
     -0.263      0.003     6.5254     60.004     46.257  33.813127     0.8516      9.100    76.4102 1.9731e+02     5.0565     -0.257     -0.373    11.5509 0.0000e+00
     -0.264      0.004     6.5308     59.968     46.266  33.818177     0.8422      9.099    72.7980 1.9736e+02     5.1537     -0.259     -0.375    11.5504 0.0000e+00
     -0.264      0.005     6.5336     59.922     46.256  33.810226     0.8534      9.099    70.8298 1.9725e+02     5.2005     -0.260     -0.377    11.5494 0.0000e+00
     -0.263      0.008     6.5366     59.849     46.216  33.780442     0.8704      9.099    70.5081 1.9674e+02     5.1780     -0.259     -0.375    11.5479 0.0000e+00
     -0.260      0.010     6.5338     59.766     46.210  33.775289     0.8559      9.098    72.2645 1.9580e+02     5.0870     -0.255     -0.371    11.5464 0.0000e+00
     -0.255      0.013     6.5290     59.708     46.260  33.811369     0.8368      9.097    74.1701 1.9436e+02     5.0561     -0.250     -0.364    11.5451 0.0000e+00
     -0.250      0.016     6.5263     59.682     46.294  33.836009     0.8558      9.097    72.2104 1.9303e+02     5.1121     -0.244     -0.354    11.5445 0.0000e+00
     -0.247      0.020     6.5171     59.691     46.271  33.819424     0.8764      9.097    69.9083 1.9243e+02     5.1151     -0.242     -0.350    11.5435 0.0000e+00
     -0.244      0.028     6.5064     59.730     46.246  33.801175     0.8704      9.097    69.4795 1.9215e+02     5.0585     -0.240     -0.348    11.5425 0.0000e+00
     -0.240      0.042     6.5005     59.763     46.253  33.805695     0.8493      9.097    69.4346 1.9100e+02     5.0089     -0.235     -0.342    11.5422 0.0000e+00
     -0.232      0.061     6.4976     59.781     46.260  33.810631     0.8300      9.097    70.7427 1.8723e+02     5.0963     -0.228     -0.331    11.5421 0.0000e+00
     -0.217      0.082     6.4975     59.793     46.243  33.797403     0.8200      9.096    72.3035 1.6979e+02     5.2953     -0.216     -0.313    11.5424 0.0000e+00
     -0.192      0.103     6.5049     59.799     46.211  33.772648     0.8035      9.095    71.3568 1.4523e+02     5.3308     -0.192     -0.277    11.5425 0.0000e+00
     -0.157      0.121     6.5084     59.824     46.202  33.765103     0.7805      9.094    69.5353 1.3270e+02     5.2187     -0.155     -0.224    11.5421 0.0000e+00
     -0.117      0.131     6.5091     59.866     46.209  33.769613     0.7748      9.093    68.9500 1.2149e+02     5.1350     -0.114     -0.166    11.5414 0.0000e+00
     -0.079      0.129     6.5125     59.908     46.201  33.763731     0.7928      9.092    68.8410 1.0898e+02     5.1043     -0.076     -0.111    11.5403 0.0000e+00
     -0.041      0.114     6.5105     59.948     46.192  33.757429     0.8144      9.091    68.7334 1.0243e+02     5.1553     -0.042     -0.060    11.5385 0.0000e+00
     -0.005      0.090     6.5141     59.974     46.191  33.756855     0.8120      9.090    68.6814 1.0078e+02     5.1698     -0.001      0.000    11.5374 0.0000e+00
      0.019      0.065     6.5200     59.982     46.191  33.756804     0.8050      9.090    68.6419 1.0628e+02     5.1430      0.026      0.038    11.5377 0.0000e+00
      0.025      0.043     6.5235     59.971     46.192  33.756809     0.8133      9.090    68.5138 1.1373e+02     5.1739      0.026      0.038    11.5377 0.0000e+00
      0.022      0.026     6.5293     59.952     46.195  33.756913     0.8203      9.090    68.4229 1.2069e+02     5.1678      0.020      0.030    11.5379 0.0000e+00
      0.019      0.013     6.5315     59.953     46.198  33.758063     0.8229      9.090    68.4903 1.2574e+02     5.1369      0.017      0.023    11.5384 0.0000e+00
      0.021      0.007     6.5329     59.947     46.217  33.770708     0.8116      9.091    68.4680 1.2526e+02     5.1083      0.019      0.027    11.5382 0.0000e+00
      0.027      0.006     6.5318     59.892     46.234  33.782921     0.7999      9.091    68.3248 1.2418e+02     5.0944      0.027      0.039    11.5368 0.0000e+00
      0.033      0.004     6.5275     59.812     46.228  33.778832     0.7987      9.090    68.3937 1.2556e+02     5.1395      0.033      0.048    11.5349 0.0000e+00
      0.035      0.000     6.5294     59.751     46.235  33.784713     0.7969      9.090    68.6130 1.2737e+02     5.1765      0.035      0.051    11.5334 0.0000e+00
      0.033     -0.002     6.5323     59.724     46.243  33.790586     0.7944      9.090    68.6527 1.2971e+02     5.1314      0.032      0.047    11.5324 0.0000e+00
      0.028      0.000     6.5238     59.720     46.237  33.786388     0.7854      9.090    68.5300 1.3346e+02     5.0374      0.029      0.042    11.5320 0.0000e+00
      0.021      0.008     6.5135     59.726     46.251  33.797403     0.7889      9.091    68.4210 1.3476e+02     5.0652      0.020      0.028    11.5322 0.0000e+00
      0.018      0.020     6.5062     59.746     46.248  33.796883     0.8114      9.091    68.3666 1.3121e+02     5.1939      0.012      0.018    11.5327 0.0000e+00
      0.026      0.033     6.5035     59.781     46.221  33.780101     0.8319      9.091    68.3016 1.2735e+02     5.2956      0.022      0.032    11.5330 0.0000e+00
      0.043      0.044     6.5044     59.816     46.225  33.784829     0.8287      9.091    68.2377 1.2379e+02     5.3384      0.040      0.059    11.5332 0.0000e+00
      0.063      0.052     6.5041     59.830     46.230  33.790606     0.7977      9.090    68.2824 1.1992e+02     5.2675      0.063      0.091    11.5338 0.0000e+00
      0.080      0.057     6.5059     59.823     46.223  33.786511     0.7904      9.090    68.3260 1.1838e+02     5.2578      0.081      0.117    11.5356 0.0000e+00
      0.091      0.057     6.5099     59.800     46.239  33.798765     0.8156      9.090    68.2486 1.1801e+02     5.3927      0.091      0.131    11.5387 0.0000e+00
      0.100      0.055     6.5145     59.752     46.257  33.811879     0.8105      9.089    68.1211 1.1451e+02     5.3961      0.096      0.140    11.5416 0.0000e+00
      0.114      0.052     6.5154     59.700     46.265  33.818177     0.7780      9.089    67.9036 1.0992e+02     5.2650      0.110      0.160    11.5436 0.0000e+00
      0.132      0.048     6.5140     59.686     46.255  33.811465     0.7641      9.090    67.6833 1.0669e+02     5.2071      0.130      0.189    11.5448 0.0000e+00
      0.148      0.043     6.5124     59.723     46.231  33.794172     0.7762      9.090    67.6083 1.0316e+02     5.2427      0.146      0.213    11.5453 0.0000e+00
      0.160      0.038     6.5066     59.783     46.238  33.799422     0.8001      9.090    67.5131 1.0131e+02     5.2512      0.159      0.231    11.5453 0.0000e+00
      0.166      0.028     6.4980     59.851     46.254  33.811496     0.8030      9.090    67.3928 1.0181e+02     5.1394      0.164      0.238    11.5456 0.0000e+00
      0.170      0.018     6.4962     59.914     46.255  33.813263     0.7864      9.091    67.3578 1.0210e+02     5.0869      0.165      0.240    11.5459 0.0000e+00
      0.173      0.009     6.5018     59.925     46.264  33.820798     0.7821      9.091    67.4348 1.0173e+02     5.1279      0.170      0.247    11.5463 0.0000e+00
      0.175      0.002     6.5090     59.871     46.288  33.839149     0.7929      9.089    67.5491 1.0148e+02     5.1231      0.174      0.252    11.5467 0.0000e+00
      0.174     -0.001     6.5158     59.784     46.295  33.844814     0.8004      9.089    67.5342 1.0179e+02     5.0979      0.171      0.248    11.5470 0.0000e+00
      0.171     -0.002     6.5256     59.691     46.270  33.825837     0.7890      9.089    67.4267 1.0260e+02     5.0280      0.167      0.243    11.5477 0.0000e+00
      0.168     -0.001     6.5275     59.621     46.235  33.800044     0.7720      9.089    67.3683 1.0257e+02     5.0289      0.165      0.240    11.5487 0.0000e+00
      0.167      0.001     6.5184     59.566     46.218  33.786730     0.7780      9.089    67.4300 1.0181e+02     5.2110      0.162      0.236    11.5498 0.0000e+00
      0.167      0.005     6.5099     59.522     46.226  33.791760     0.8036      9.090    67.3995 1.0049e+02     5.3855      0.162      0.235    11.5501 0.0000e+00
      0.171      0.006     6.4967     59.540     46.234  33.797413     0.8154      9.090    67.2573 1.0004e+02     5.3617      0.167      0.242    11.5499 0.0000e+00
      0.176      0.004     6.4902     59.607     46.227  33.791627     0.8038      9.089    67.1731 1.0097e+02     5.2313      0.173      0.252    11.5495 0.0000e+00
      0.180      0.000     6.4864     59.681     46.219  33.785243     0.7965      9.089    67.1553 1.0101e+02     5.1756      0.177      0.256    11.5487 0.0000e+00
      0.181     -0.005     6.4765     59.780     46.219  33.783674     0.8101      9.089    67.3005 1.0138e+02     5.1662      0.179      0.258    11.5480 0.0000e+00
      0.177     -0.008     6.4801     59.901     46.205  33.772660     0.8105      9.090    67.4670 1.0266e+02     5.1174      0.175      0.253    11.5474 0.0000e+00
      0.169     -0.008     6.4913     59.995     46.215  33.778957     0.7935      9.091    67.4465 1.0339e+02     5.0304      0.165      0.239    11.5470 0.0000e+00
      0.163     -0.003     6.4963     60.051     46.240  33.796365     0.7871      9.090    67.3967 1.0397e+02     4.9676      0.158      0.229    11.5464 0.0000e+00
      0.161      0.003     6.5075     60.104     46.235  33.792800     0.7913      9.090    67.3815 1.0390e+02     5.0066      0.157      0.227    11.5448 0.0000e+00
      0.164      0.008     6.5239     60.148     46.243  33.799296     0.8108      9.090    67.3494 1.0221e+02     5.1261      0.158      0.229    11.5430 0.0000e+00
      0.171      0.016     6.5353     60.188     46.258  33.811473     0.8157      9.090    67.5237 1.0047e+02     5.1490      0.167      0.241    11.5423 0.0000e+00
      0.180      0.028     6.5378     60.228     46.260  33.813138     0.7919      9.091    67.9406 9.9433e+01     5.0441      0.180      0.261    11.5418 0.0000e+00
      0.185      0.042     6.5454     60.236     46.268  33.819427     0.7635      9.091    68.3468 9.9323e+01     5.0540      0.185      0.269    11.5417 0.0000e+00
      0.185      0.056     6.5505     60.241     46.275  33.824060     0.7479      9.091    68.6487 9.8912e+01     5.2339      0.178      0.257    11.5424 0.0000e+00
      0.197      0.068     6.5515     60.259     46.250  33.805713     0.7608      9.091    68.9240 9.4492e+01     5.3403      0.181      0.263    11.5433 0.0000e+00
      0.228      0.079     6.5617     60.233     46.225  33.787938     0.7611      9.091    69.1810 8.8498e+01     5.3155      0.226      0.328    11.5440 0.0000e+00
      0.260      0.092     6.5579     60.136     46.241  33.799474     0.7441      9.090    69.3469 8.4957e+01     5.3448      0.262      0.379    11.5443 0.0000e+00
      0.283      0.104     6.5575     60.011     46.266  33.818298     0.7382      9.090    69.4666 8.2042e+01     5.4208      0.275      0.399    11.5442 0.0000e+00
      0.304      0.109     6.5636     59.911     46.274  33.825205     0.7394      9.090    69.5951 7.8548e+01     5.4158      0.297      0.430    11.5444 0.0000e+00
      0.329      0.107     6.5617     59.833     46.264  33.819542     0.7583      9.090    69.6966 7.4643e+01     5.3514      0.320      0.464    11.5445 0.0000e+00
      0.361      0.101     6.5496     59.767     46.254  33.813263     0.7753      9.091    69.6613 7.0490e+01     5.2231      0.352      0.511    11.5444 0.0000e+00
      0.395      0.095     6.5319     59.724     46.251  33.812733     0.7874      9.091    69.4269 6.6955e+01     5.1281      0.389      0.565    11.5451 0.0000e+00
      0.425      0.087     6.5227     59.718     46.250  33.813150     0.8132      9.090    69.1853 6.4640e+01     5.1940      0.422      0.612    11.5461 0.0000e+00
      0.442      0.081     6.5139     59.735     46.257  33.818303     0.8283      9.090    69.0629 6.3710e+01     5.2335      0.438      0.636    11.5474 0.0000e+00
      0.451      0.079     6.5061     59.747     46.247  33.811591     0.8126      9.091    68.9798 6.2823e+01     5.1280      0.440      0.638    11.5492 0.0000e+00
      0.462      0.080     6.5002     59.747     46.225  33.795431     0.7895      9.092    68.8685 6.1044e+01     5.0122      0.451      0.654    11.5509 0.0000e+00
      0.482      0.080     6.4999     59.727     46.249  33.813254     0.7901      9.092    68.8358 5.8790e+01     4.9938      0.471      0.684    11.5519 0.0000e+00
      0.511      0.077     6.5039     59.693     46.280  33.836749     0.8035      9.092    68.9280 5.5935e+01     5.0768      0.497      0.722    11.5523 0.0000e+00
      0.545      0.071     6.5043     59.669     46.265  33.825724     0.8011      9.091    68.8658 5.3481e+01     5.0931      0.538      0.779    11.5524 0.0000e+00
      0.570      0.066     6.5053     59.669     46.239  33.806843     0.7865      9.091    68.7715 5.2944e+01     4.9859      0.569      0.826    11.5525 0.0000e+00
      0.576      0.062     6.5030     59.706     46.228  33.798796     0.7770      9.091    68.8204 5.3489e+01     4.9428      0.569      0.825    11.5530 0.0000e+00
      0.571      0.058     6.4971     59.766     46.218  33.791876     0.7859      9.091    68.8544 5.3310e+01     5.0149      0.554      0.803    11.5535 0.0000e+00
      0.579      0.056     6.4955     59.830     46.211  33.786618     0.8112      9.091    68.9254 5.1605e+01     5.1067      0.561      0.813    11.5537 0.0000e+00
      0.604      0.056     6.4933     59.901     46.227  33.798673     0.8165      9.091    68.9903 4.9402e+01     5.0967      0.594      0.860    11.5537 0.0000e+00
      0.631      0.061     6.4989     59.984     46.244  33.810737     0.8000      9.091    69.0360 4.7996e+01     5.0650      0.623      0.905    11.5535 0.0000e+00
      0.651      0.070     6.5065     60.064     46.238  33.805594     0.7863      9.091    69.0477 4.7226e+01     5.0993      0.641      0.929    11.5537 0.0000e+00
      0.663      0.079     6.5125     60.131     46.230  33.799930     0.7846      9.091    68.9607 4.6828e+01     5.1010      0.653      0.947    11.5543 0.0000e+00
      0.669      0.089     6.5200     60.182     46.237  33.805707     0.7878      9.092    69.0167 4.6280e+01     5.1198      0.654      0.949    11.5544 0.0000e+00
      0.684      0.099     6.5300     60.223     46.246  33.811995     0.7662      9.092    69.2085 4.4449e+01     5.1895      0.662      0.959    11.5537 0.0000e+00
      0.719      0.108     6.5393     60.242     46.246  33.812515     0.7317      9.091    69.2148 4.1662e+01     5.2952      0.702      1.018    11.5532 0.0000e+00
      0.766      0.116     6.5465     60.215     46.245  33.811986     0.7280      9.091    69.0920 3.9201e+01     5.4077      0.753      1.092    11.5533 0.0000e+00
      0.806      0.119     6.5520     60.169     46.237  33.805595     0.7632      9.092    69.0145 3.7674e+01     5.4223      0.797      1.157    11.5536 0.0000e+00
      0.831      0.116     6.5556     60.142     46.228  33.798683     0.7998      9.092    68.9670 3.6910e+01     5.3347      0.819      1.188    11.5542 0.0000e+00
      0.850      0.106     6.5608     60.138     46.218  33.791866     0.8047      9.092    68.9470 3.6001e+01     5.2367      0.829      1.201    11.5547 0.0000e+00
      0.874      0.094     6.5555     60.150     46.210  33.786618     0.7879      9.092    68.9445 3.4724e+01     5.2622      0.856      1.243    11.5544 0.0000e+00
      0.902      0.085     6.5489     60.172     46.226  33.798673     0.7881      9.091    68.9372 3.3607e+01     5.4037      0.886      1.284    11.5540 0.0000e+00
      0.926      0.079     6.5462     60.213     46.243  33.810728     0.7999      9.090    68.9454 3.2731e+01     5.4789      0.910      1.320    11.5540 0.0000e+00
      0.945      0.072     6.5458     60.298     46.236  33.805480     0.7894      9.090    69.0433 3.2155e+01     5.4534      0.930      1.349    11.5544 0.0000e+00
      0.959      0.064     6.5471     60.403     46.228  33.798673     0.7769      9.090    69.1738 3.1677e+01     5.4381      0.940      1.363    11.5554 0.0000e+00
      0.974      0.059     6.5501     60.474     46.218  33.791871     0.7738      9.090    69.1471 3.1117e+01     5.4301      0.957      1.387    11.5555 0.0000e+00
      0.987      0.057     6.5521     60.502     46.211  33.786680     0.7850      9.091    68.9789 3.0755e+01     5.4255      0.970      1.407    11.5550 0.0000e+00
      0.997      0.058     6.5626     60.496     46.229  33.799360     0.7956      9.092    68.7754 3.0365e+01     5.3816      0.976      1.416    11.5543 0.0000e+00
      1.011      0.059     6.5778     60.442     46.254  33.818288     0.7776      9.092    68.4926 2.9686e+01     5.2747      0.990      1.436    11.5537 0.0000e+00
      1.030      0.062     6.5848     60.341     46.263  33.825196     0.7668      9.092    67.9686 2.8917e+01     5.2265      1.009      1.465    11.5538 0.0000e+00
      1.049      0.071     6.5872     60.228     46.255  33.819438     0.7736      9.092    66.5695 2.8242e+01     5.2775      1.030      1.493    11.5540 0.0000e+00
      1.065      0.082     6.5873     60.153     46.247  33.812111     0.7767      9.091    64.2248 2.7886e+01     5.3790      1.048      1.519    11.5541 0.0000e+00
      1.078      0.090     6.5821     60.140     46.232  33.800047     0.7621      9.091    61.9887 2.7427e+01     5.3942      1.053      1.527    11.5547 0.0000e+00
      1.102      0.093     6.5687     60.154     46.233  33.800471     0.7298      9.092    60.3547 2.6200e+01     5.2912      1.072      1.554    11.5551 0.0000e+00
      1.140      0.093     6.5553     60.175     46.256  33.817236     0.7197      9.093    58.9223 2.4881e+01     5.2262      1.122      1.626    11.5549 0.0000e+00
      1.174      0.092     6.5447     60.219     46.250  33.812412     0.7477      9.092    57.3175 2.4241e+01     5.2920      1.159      1.681    11.5535 0.0000e+00
      1.193      0.088     6.5464     60.269     46.240  33.805596     0.7772      9.091    55.7496 2.3896e+01     5.4032      1.172      1.700    11.5519 0.0000e+00
      1.206      0.080     6.5494     60.300     46.230  33.798259     0.7685      9.091    54.4192 2.3417e+01     5.3747      1.181      1.713    11.5513 0.0000e+00
      1.222      0.071     6.5489     60.291     46.214  33.787149     0.7350      9.091    53.1913 2.2812e+01     5.2896      1.195      1.733    11.5513 0.0000e+00
      1.243      0.068     6.5562     60.230     46.229  33.798156     0.7212      9.092    52.0023 2.2323e+01     5.3307      1.223      1.774    11.5512 0.0000e+00
      1.260      0.071     6.5619     60.149     46.238  33.804452     0.7259      9.093    50.7988 2.1989e+01     5.3927      1.238      1.796    11.5512 0.0000e+00
      1.275      0.075     6.5659     60.083     46.231  33.799829     0.7259      9.093    49.7386 2.1543e+01     5.3903      1.246      1.807    11.5514 0.0000e+00
      1.294      0.075     6.5667     60.047     46.238  33.805700     0.7206      9.092    48.9065 2.1002e+01     5.3025      1.269      1.841    11.5516 0.0000e+00
      1.316      0.071     6.5572     60.036     46.246  33.811996     0.7290      9.091    48.0513 2.0463e+01     5.1840      1.289      1.870    11.5520 0.0000e+00
      1.338      0.064     6.5471     60.022     46.246  33.812507     0.7528      9.091    47.1412 1.9916e+01     5.1537      1.311      1.901    11.5523 0.0000e+00
      1.359      0.055     6.5398     59.986     46.245  33.811883     0.7499      9.091    46.2484 1.9512e+01     5.1074      1.336      1.939    11.5525 0.0000e+00
      1.373      0.045     6.5353     59.946     46.235  33.804452     0.7185      9.091    45.2589 1.9358e+01     5.0340      1.349      1.957    11.5531 0.0000e+00
      1.378      0.038     6.5357     59.909     46.210  33.786100     0.7060      9.091    44.2971 1.9333e+01     5.0182      1.352      1.961    11.5538 0.0000e+00
      1.379      0.036     6.5353     59.858     46.201  33.780332     0.7235      9.092    43.5667 1.9268e+01     5.0522      1.352      1.961    11.5543 0.0000e+00
      1.382      0.038     6.5299     59.830     46.225  33.798155     0.7471      9.092    42.9673 1.9088e+01     5.1386      1.352      1.961    11.5546 0.0000e+00
      1.392      0.045     6.5244     59.845     46.243  33.811258     0.7509      9.091    42.3848 1.8774e+01     5.1402      1.362      1.975    11.5546 0.0000e+00
      1.408      0.051     6.5237     59.857     46.245  33.811873     0.7525      9.091    41.7719 1.8368e+01     5.1393      1.379      2.001    11.5544 0.0000e+00
      1.427      0.056     6.5146     59.867     46.237  33.805585     0.7750      9.091    41.1486 1.7943e+01     5.2638      1.398      2.030    11.5547 0.0000e+00
      1.446      0.060     6.5098     59.897     46.228  33.798684     0.7985      9.092    40.5271 1.7613e+01     5.3483      1.421      2.061    11.5551 0.0000e+00
      1.461      0.062     6.5160     59.927     46.220  33.791869     0.8112      9.092    39.9369 1.7462e+01     5.4091      1.436      2.081    11.5551 0.0000e+00
      1.470      0.064     6.5159     59.956     46.213  33.786630     0.7872      9.092    39.4319 1.7295e+01     5.4186      1.441      2.089    11.5547 0.0000e+00
      1.483      0.066     6.5157     59.993     46.229  33.798790     0.7329      9.092    38.9818 1.6912e+01     5.3610      1.452      2.105    11.5543 0.0000e+00
      1.502      0.069     6.5206     60.024     46.247  33.811999     0.7204      9.092    38.5390 1.6460e+01     5.3958      1.473      2.135    11.5539 0.0000e+00
      1.525      0.072     6.5244     60.063     46.257  33.819439     0.7444      9.092    38.1211 1.6081e+01     5.4637      1.496      2.170    11.5532 0.0000e+00
      1.546      0.073     6.5257     60.113     46.265  33.825311     0.7406      9.092    37.8016 1.5728e+01     5.4306      1.516      2.199    11.5527 0.0000e+00
      1.565      0.071     6.5320     60.140     46.257  33.819548     0.7071      9.092    37.4287 1.5359e+01     5.3029      1.535      2.226    11.5528 0.0000e+00
      1.583      0.068     6.5341     60.149     46.248  33.813204     0.6901      9.092    36.9678 1.5009e+01     5.2509      1.552      2.252    11.5530 0.0000e+00
      1.600      0.065     6.5369     60.171     46.248  33.812049     0.7094      9.092    36.5311 1.4771e+01     5.3493      1.572      2.279    11.5531 0.0000e+00
      1.612      0.065     6.5460     60.234     46.242  33.805592     0.7317      9.092    36.1062 1.4556e+01     5.4336      1.580      2.293    11.5534 0.0000e+00
      1.625      0.067     6.5474     60.316     46.238  33.798572     0.7356      9.092    35.7022 1.4204e+01     5.3811      1.590      2.306    11.5539 0.0000e+00
      1.643      0.071     6.5477     60.368     46.233  33.790612     0.7149      9.091    35.3464 1.3849e+01     5.2615      1.613      2.339    11.5537 0.0000e+00
      1.663      0.072     6.5484     60.389     46.215  33.772779     0.6898      9.091    34.9878 1.3537e+01     5.2859      1.630      2.365    11.5527 0.0000e+00
      1.684      0.071     6.5561     60.406     46.221  33.773289     0.6894      9.092    34.5490 1.3176e+01     5.3690      1.650      2.393    11.5503 0.0000e+00
      1.707      0.070     6.5694     60.416     46.259  33.796775     0.6858      9.093    34.1715 1.2877e+01     5.3092      1.676      2.431    11.5461 0.0000e+00
      1.726      0.069     6.5747     60.380     46.273  33.802958     0.6785      9.093    33.8648 1.2708e+01     5.2465      1.696      2.460    11.5410 0.0000e+00
      1.739      0.070     6.5766     60.291     46.251  33.784596     0.6767      9.093    33.5080 1.2599e+01     5.2600      1.706      2.475    11.5361 0.0000e+00
      1.749      0.070     6.5783     60.167     46.230  33.765100     0.6801      9.093    33.2134 1.2405e+01     5.3015      1.710      2.482    11.5322 0.0000e+00
      1.766      0.068     6.5837     60.005     46.230  33.757561     0.6947      9.092    32.9704 1.2074e+01     5.3387      1.729      2.508    11.5266 0.0000e+00
      1.791      0.063     6.5799     59.822     46.241  33.756877     0.6783      9.092    32.6342 1.1731e+01     5.2992      1.758      2.549    11.5224 0.0000e+00
      1.816      0.060     6.5688     59.635     46.251  33.756825     0.6402      9.092    32.3327 1.1504e+01     5.2340      1.783      2.587    11.5213 0.0000e+00
      1.831      0.059     6.5572     59.442     46.256  33.756925     0.6252      9.092    32.1635 1.1429e+01     5.2337      1.799      2.608    11.5173 0.0000e+00
      1.836      0.060     6.5398     59.279     46.259  33.758078     0.6382      9.093    31.8785 1.1415e+01     5.2947      1.802      2.613    11.5084 0.0000e+00
      1.841      0.062     6.5202     59.169     46.277  33.770766     0.6652      9.093    31.4684 1.1321e+01     5.3573      1.802      2.612    11.4974 0.0000e+00
      1.855      0.067     6.5024     59.048     46.295  33.783446     0.6597      9.092    31.1632 1.1051e+01     5.3080      1.813      2.628    11.4889 0.0000e+00
      1.880      0.071     6.4805     58.905     46.297  33.784496     0.6301      9.092    30.9413 1.0701e+01     5.2102      1.843      2.674    11.4852 0.0000e+00
      1.907      0.073     6.4588     58.780     46.296  33.783456     0.6326      9.092    30.6788 1.0391e+01     5.2674      1.873      2.716    11.4844 0.0000e+00
      1.931      0.074     6.4536     58.698     46.278  33.770867     0.6556      9.092    30.3973 1.0143e+01     5.4195      1.896      2.750    11.4848 0.0000e+00
      1.948      0.074     6.4393     58.671     46.262  33.759176     0.6677      9.092    30.1189 1.0018e+01     5.4444      1.914      2.777    11.4854 0.0000e+00
      1.958      0.074     6.4209     58.656     46.278  33.768996     0.6535      9.092    29.7217 9.9358e+00     5.3285      1.920      2.784    11.4840 0.0000e+00
      1.969      0.076     6.4088     58.640     46.275  33.762700     0.6340      9.091    29.2951 9.7352e+00     5.3163      1.925      2.792    11.4822 0.0000e+00
      1.989      0.078     6.3964     58.657     46.258  33.746498     0.6484      9.091    29.0055 9.4282e+00     5.5026      1.947      2.825    11.4841 0.0000e+00
      2.017      0.080     6.3973     58.702     46.286  33.763428     0.6614      9.091    28.8000 9.1162e+00     5.5997      1.978      2.869    11.4858 0.0000e+00
      2.046      0.083     6.3967     58.744     46.308  33.777060     0.6578      9.091    28.5316 8.8621e+00     5.5338      2.009      2.912    11.4831 0.0000e+00
      2.070      0.088     6.3925     58.774     46.320  33.784425     0.6548      9.091    28.1705 8.7149e+00     5.4912      2.034      2.951    11.4779 0.0000e+00
      2.084      0.092     6.3961     58.785     46.328  33.789040     0.6492      9.091    27.8750 8.6350e+00     5.5287      2.044      2.966    11.4727 0.0000e+00
      2.096      0.093     6.4035     58.771     46.305  33.769411     0.6577      9.090    27.7125 8.4659e+00     5.6120      2.049      2.972    11.4687 0.0000e+00
      2.121      0.091     6.4082     58.755     46.266  33.737423     0.6571      9.090    27.5817 8.1264e+00     5.6097      2.074      3.007    11.4666 0.0000e+00
      2.158      0.091     6.4115     58.737     46.247  33.719497     0.6331      9.090    27.3258 7.7734e+00     5.5350      2.118      3.072    11.4661 0.0000e+00
      2.191      0.095     6.4141     58.702     46.283  33.742993     0.6099      9.089    26.9416 7.5760e+00     5.4940      2.155      3.127    11.4654 0.0000e+00
      2.210      0.100     6.4108     58.654     46.320  33.767732     0.6010      9.088    26.6363 7.4849e+00     5.5247      2.170      3.149    11.4622 0.0000e+00
      2.221      0.101     6.4101     58.597     46.319  33.764823     0.6086      9.088    26.4734 7.3527e+00     5.5989      2.175      3.155    11.4570 0.0000e+00
      2.240      0.099     6.4101     58.516     46.330  33.771271     0.6016      9.088    26.2628 7.0985e+00     5.6058      2.191      3.177    11.4525 0.0000e+00
      2.273      0.096     6.4057     58.396     46.349  33.782249     0.5745      9.088    25.9822 6.7615e+00     5.6083      2.227      3.229    11.4494 0.0000e+00
      2.313      0.096     6.4009     58.246     46.336  33.770664     0.5720      9.088    25.7478 6.4993e+00     5.6624      2.274      3.297    11.4475 0.0000e+00
      2.342      0.094     6.3955     58.079     46.321  33.758075     0.6048      9.087    25.5799 6.3864e+00     5.6787      2.305      3.341    11.4458 0.0000e+00
      2.357      0.085     6.3881     57.899     46.321  33.756931     0.6223      9.087    25.5018 6.3053e+00     5.6687      2.311      3.352    11.4432 0.0000e+00
      2.371      0.073     6.3753     57.793     46.322  33.756827     0.6007      9.087    25.4048 6.1693e+00     5.6442      2.321      3.366    11.4404 0.0000e+00
      2.391      0.068     6.3569     57.783     46.322  33.756816     0.5767      9.087    25.1819 6.0311e+00     5.6207      2.347      3.403    11.4382 0.0000e+00
      2.408      0.074     6.3418     57.762     46.324  33.756801     0.5811      9.086    24.8716 5.9584e+00     5.6590      2.366      3.431    11.4364 0.0000e+00
      2.419      0.087     6.3174     57.770     46.328  33.756644     0.6037      9.086    24.5779 5.8851e+00     5.6977      2.369      3.436    11.4348 0.0000e+00
      2.435      0.101     6.3006     57.832     46.332  33.754913     0.6092      9.085    24.3845 5.7135e+00     5.6779      2.381      3.453    11.4344 0.0000e+00
      2.465      0.112     6.3128     57.846     46.315  33.735867     0.5898      9.085    24.1679 5.4704e+00     5.6594      2.415      3.501    11.4348 0.0000e+00
      2.505      0.119     6.3032     57.794     46.297  33.716692     0.5763      9.084    23.9375 5.2212e+00     5.7125      2.456      3.562    11.4339 0.0000e+00
      2.545      0.119     6.3017     57.717     46.301  33.713388     0.5880      9.084    23.8358 4.9875e+00     5.8082      2.497      3.622    11.4302 0.0000e+00
      2.581      0.109     6.3190     57.633     46.282  33.695914     0.5975      9.084    23.7132 4.7790e+00     5.8250      2.534      3.674    11.4242 0.0000e+00
      2.609      0.095     6.3189     57.557     46.284  33.695743     0.5836      9.083    23.4872 4.6342e+00     5.6773      2.563      3.717    11.4177 0.0000e+00
      2.627      0.085     6.3130     57.522     46.306  33.711314     0.5698      9.082    23.2543 4.5809e+00     5.4912      2.582      3.744    11.4104 0.0000e+00
      2.636      0.083     6.3047     57.512     46.283  33.693854     0.5716      9.082    23.0475 4.5470e+00     5.4872      2.584      3.749    11.4035 0.0000e+00
      2.645      0.088     6.2969     57.483     46.258  33.674969     0.5896      9.082    22.8797 4.4527e+00     5.5953      2.589      3.754    11.3994 0.0000e+00
      2.667      0.099     6.2854     57.442     46.259  33.673304     0.6037      9.083    22.7742 4.2893e+00     5.6019      2.611      3.786    11.3982 0.0000e+00
      2.701      0.112     6.2831     57.413     46.264  33.673720     0.5841      9.083    22.7188 4.1010e+00     5.4988      2.648      3.843    11.3979 0.0000e+00
      2.738      0.122     6.2846     57.360     46.279  33.679998     0.5608      9.082    22.5552 3.9303e+00     5.4083      2.684      3.894    11.3981 0.0000e+00
      2.776      0.131     6.2811     57.254     46.294  33.685764     0.5710      9.081    22.3440 3.7700e+00     5.4641      2.720      3.946    11.3976 0.0000e+00
      2.812      0.140     6.2745     57.149     46.294  33.679989     0.5834      9.081    22.2310 3.6499e+00     5.6606      2.764      4.010    11.3945 0.0000e+00
      2.840      0.145     6.2739     57.070     46.294  33.673609     0.5525      9.081    22.1347 3.5710e+00     5.7701      2.787      4.043    11.3907 0.0000e+00
      2.866      0.144     6.2724     56.994     46.303  33.672050     0.5054      9.081    22.1264 3.4272e+00     5.7291      2.800      4.062    11.3859 0.0000e+00
      2.910      0.134     6.2563     56.917     46.298  33.661130     0.5049      9.081    22.1308 3.1932e+00     5.7451      2.849      4.131    11.3796 0.0000e+00
      2.964      0.119     6.2454     56.838     46.316  33.668467     0.5376      9.080    22.0151 2.9724e+00     5.7925      2.913      4.225    11.3737 0.0000e+00
      3.004      0.103     6.2399     56.763     46.360  33.697306     0.5513      9.080    21.9322 2.8621e+00     5.7211      2.955      4.287    11.3673 0.0000e+00
      3.022      0.091     6.2322     56.735     46.356  33.692588     0.5297      9.081    21.9026 2.8546e+00     5.5992      2.969      4.306    11.3578 0.0000e+00
      3.026      0.084     6.2252     56.769     46.332  33.674859     0.4925      9.081    21.8287 2.8640e+00     5.5484      2.968      4.305    11.3484 0.0000e+00
      3.027      0.083     6.2185     56.847     46.332  33.673290     0.4763      9.080    21.7270 2.8389e+00     5.5850      2.964      4.300    11.3426 0.0000e+00
      3.042      0.088     6.2071     56.933     46.335  33.673611     0.4664      9.079    21.6196 2.7343e+00     5.5645      2.973      4.311    11.3395 0.0000e+00
      3.079      0.096     6.2042     56.991     46.346  33.678746     0.4561      9.077    21.4770 2.5617e+00     5.4703      3.016      4.373    11.3382 0.0000e+00
      3.124      0.102     6.2091     57.041     46.340  33.671918     0.4597      9.077    21.2933 2.4281e+00     5.4370      3.069      4.451    11.3379 0.0000e+00
      3.158      0.103     6.2182     57.090     46.319  33.654502     0.4512      9.077    21.1198 2.3679e+00     5.5030      3.104      4.501    11.3369 0.0000e+00
      3.176      0.100     6.2316     57.105     46.326  33.658502     0.4373      9.077    21.0133 2.3287e+00     5.6204      3.117      4.520    11.3346 0.0000e+00
      3.190      0.095     6.2355     57.092     46.325  33.656828     0.4249      9.077    20.9523 2.2883e+00     5.6261      3.125      4.532    11.3318 0.0000e+00
      3.207      0.094     6.2410     57.083     46.295  33.634258     0.4014      9.077    20.9842 2.2458e+00     5.5031      3.144      4.560    11.3290 0.0000e+00
      3.229      0.097     6.2492     57.048     46.303  33.639401     0.3865      9.077    21.0554 2.1756e+00     5.4326      3.163      4.588    11.3266 0.0000e+00
      3.259      0.100     6.2510     56.977     46.327  33.655561     0.4025      9.078    20.9534 2.0722e+00     5.5583      3.192      4.629    11.3252 0.0000e+00
      3.296      0.101     6.2461     56.906     46.306  33.639302     0.4282      9.078    20.7824 1.9780e+00     5.7937      3.235      4.691    11.3243 0.0000e+00
      3.329      0.100     6.2484     56.842     46.300  33.633156     0.4234      9.077    20.6230 1.9263e+00     5.8530      3.273      4.746    11.3233 0.0000e+00
      3.349      0.098     6.2460     56.783     46.319  33.644691     0.4022      9.076    20.4023 1.9008e+00     5.7631      3.288      4.768    11.3220 0.0000e+00
      3.361      0.097     6.2347     56.746     46.331  33.651876     0.4222      9.075    20.2651 1.8540e+00     5.7311      3.292      4.774    11.3207 0.0000e+00
      3.382      0.101     6.2281     56.732     46.340  33.656581     0.4892      9.075    20.2552 1.7845e+00     5.7745      3.312      4.804    11.3194 0.0000e+00
      3.411      0.109     6.2216     56.707     46.318  33.638133     0.5389      9.076    20.1963 1.7301e+00     5.8430      3.347      4.855    11.3179 0.0000e+00
      3.441      0.117     6.2144     56.676     46.295  33.619158     0.5399      9.076    20.0688 1.6709e+00     5.8424      3.373      4.893    11.3164 0.0000e+00
      3.474      0.119     6.2097     56.677     46.296  33.617486     0.5009      9.075    19.9186 1.5887e+00     5.7672      3.403      4.935    11.3146 0.0000e+00
      3.514      0.116     6.2115     56.693     46.299  33.617911     0.4507      9.075    19.6704 1.5124e+00     5.7187      3.447      5.000    11.3122 0.0000e+00
      3.551      0.114     6.2087     56.689     46.311  33.624294     0.4324      9.075    19.3906 1.4642e+00     5.7007      3.489      5.061    11.3097 0.0000e+00
      3.573      0.118     6.2024     56.683     46.324  33.631214     0.4375      9.074    19.2036 1.4483e+00     5.6861      3.508      5.088    11.3069 0.0000e+00
      3.588      0.123     6.2046     56.688     46.336  33.638137     0.4289      9.074    19.1301 1.4310e+00     5.7131      3.514      5.097    11.3045 0.0000e+00
      3.611      0.125     6.2091     56.694     46.347  33.644539     0.4123      9.075    19.1037 1.3745e+00     5.8218      3.534      5.126    11.3026 0.0000e+00
      3.651      0.122     6.2069     56.712     46.349  33.645172     0.4202      9.076    18.9703 1.2821e+00     5.9076      3.575      5.187    11.3003 0.0000e+00
      3.700      0.117     6.2059     56.733     46.350  33.645797     0.4326      9.076    18.7222 1.1985e+00     5.8284      3.631      5.266    11.2978 0.0000e+00
      3.742      0.108     6.2082     56.736     46.359  33.652093     0.4206      9.076    18.5134 1.1585e+00     5.6499      3.677      5.334    11.2957 0.0000e+00
      3.766      0.096     6.2080     56.737     46.367  33.657852     0.4000      9.076    18.3388 1.1399e+00     5.5250      3.700      5.367    11.2941 0.0000e+00
      3.774      0.086     6.2101     56.759     46.360  33.651980     0.3991      9.075    18.1595 1.1310e+00     5.5135      3.702      5.369    11.2931 0.0000e+00
      3.779      0.083     6.2147     56.772     46.350  33.644539     0.4189      9.074    17.9797 1.1183e+00     5.5795      3.701      5.368    11.2924 0.0000e+00
      3.795      0.090     6.2138     56.752     46.335  33.631329     0.4225      9.074    17.6276 1.0789e+00     5.6056      3.718      5.393    11.2921 0.0000e+00
      3.822      0.102     6.2119     56.725     46.321  33.619151     0.4014      9.074    17.1715 1.0369e+00     5.5906      3.749      5.437    11.2923 0.0000e+00
      3.856      0.111     6.2163     56.695     46.330  33.624181     0.3885      9.073    16.9394 9.9634e-01     5.6709      3.779      5.480    11.2921 0.0000e+00
      3.896      0.113     6.2199     56.621     46.338  33.628700     0.4077      9.073    16.8857 9.4298e-01     5.8247      3.819      5.540    11.2911 0.0000e+00
      3.936      0.113     6.2156     56.531     46.314  33.610340     0.4341      9.073    16.6956 8.9907e-01     5.9479      3.867      5.608    11.2895 0.0000e+00
      3.961      0.115     6.2121     56.487     46.290  33.592516     0.4244      9.073    16.3621 8.7912e-01     5.9305      3.892      5.643    11.2873 0.0000e+00
      3.972      0.120     6.2130     56.489     46.306  33.603531     0.3908      9.073    16.1217 8.6820e-01     5.7843      3.893      5.644    11.2849 0.0000e+00
      3.989      0.122     6.2036     56.519     46.327  33.616626     0.3850      9.073    16.0267 8.4112e-01     5.7174      3.903      5.661    11.2832 0.0000e+00
      4.028      0.120     6.1893     56.560     46.342  33.623953     0.4129      9.073    15.9014 7.9098e-01     5.8058      3.945      5.722    11.2825 0.0000e+00
      4.078      0.114     6.1861     56.589     46.353  33.628681     0.4369      9.073    15.6387 7.4413e-01     5.8627      4.002      5.805    11.2822 0.0000e+00
      4.123      0.104     6.1870     56.610     46.330  33.610341     0.4334      9.073    15.3461 7.0995e-01     5.7559      4.049      5.873    11.2816 0.0000e+00
      4.149      0.091     6.1904     56.645     46.306  33.592527     0.4035      9.073    15.1160 6.8306e-01     5.6766      4.076      5.913    11.2799 0.0000e+00
      4.156      0.083     6.1981     56.713     46.321  33.603636     0.3921      9.073    15.0078 6.7756e-01     5.7574      4.079      5.917    11.2761 0.0000e+00
      4.155      0.086     6.2001     56.783     46.340  33.617771     0.4048      9.073    14.9852 6.8963e-01     5.8109      4.072      5.905    11.2714 0.0000e+00
      4.162      0.101     6.2031     56.814     46.368  33.636539     0.4065      9.074    14.9277 6.8898e-01     5.7422      4.074      5.909    11.2691 0.0000e+00
      4.190      0.119     6.2047     56.841     46.377  33.640217     0.4043      9.074    14.9161 6.5491e-01     5.6783      4.100      5.948    11.2697 0.0000e+00
      4.240      0.131     6.2135     56.858     46.324  33.598795     0.3947      9.073    14.9310 5.9965e-01     5.6877      4.156      6.027    11.2707 0.0000e+00
      4.298      0.129     6.2254     56.828     46.301  33.579821     0.3983      9.072    14.7633 5.5153e-01     5.7532      4.218      6.118    11.2707 0.0000e+00
      4.345      0.114     6.2238     56.738     46.331  33.601131     0.4153      9.072    14.5231 5.2803e-01     5.7867      4.270      6.192    11.2693 0.0000e+00
      4.371      0.092     6.2292     56.625     46.333  33.602681     0.3999      9.072    14.4354 5.3158e-01     5.7510      4.294      6.228    11.2658 0.0000e+00
      4.376      0.076     6.2331     56.548     46.326  33.598558     0.3788      9.072    14.3919 5.4219e-01     5.6977      4.293      6.228    11.2622 0.0000e+00
      4.373      0.075     6.2312     56.519     46.349  33.614725     0.3764      9.073    14.1687 5.4060e-01     5.6889      4.286      6.217    11.2596 0.0000e+00
      4.376      0.089     6.2199     56.537     46.344  33.607825     0.3882      9.073    13.9737 5.2440e-01     5.8497      4.284      6.215    11.2590 0.0000e+00
      4.396      0.108     6.2033     56.582     46.314  33.578564     0.4044      9.073    14.0123 4.9533e-01     6.0361      4.302      6.239    11.2595 0.0000e+00
      4.440      0.121     6.1965     56.638     46.325  33.578148     0.3982      9.073    14.0336 4.5970e-01     6.0296      4.347      6.306    11.2606 0.0000e+00
      4.499      0.124     6.1916     56.693     46.367  33.602788     0.3959      9.073    13.9733 4.2587e-01     6.0100      4.415      6.403    11.2616 0.0000e+00
      4.549      0.119     6.1959     56.691     46.398  33.622701     0.4176      9.074    13.8853 3.9862e-01     6.0384      4.473      6.487    11.2577 0.0000e+00
      4.573      0.113     6.2032     56.635     46.407  33.628562     0.4369      9.072    13.7448 3.8527e-01     5.9974      4.492      6.515    11.2486 0.0000e+00
      4.578      0.110     6.2089     56.575     46.382  33.610215     0.4377      9.072    13.5652 3.8546e-01     5.9239      4.487      6.509    11.2387 0.0000e+00
      4.583      0.113     6.2208     56.489     46.357  33.591201     0.4189      9.073    13.3485 3.7995e-01     5.8337      4.488      6.510    11.2316 0.0000e+00
      4.607      0.120     6.2208     56.376     46.356  33.589000     0.4092      9.073    13.1887 3.5280e-01     5.8622      4.507      6.537    11.2298 0.0000e+00
      4.654      0.126     6.2092     56.246     46.354  33.583590     0.4292      9.073    13.0100 3.0843e-01     6.0635      4.560      6.613    11.2303 0.0000e+00
      4.713      0.127     6.2069     56.083     46.366  33.589239     0.4518      9.073    12.6510 2.7333e-01     6.1837      4.628      6.712    11.2296 0.0000e+00
      4.760      0.124     6.1972     55.955     46.372  33.593854     0.4484      9.072    12.2890 2.7435e-01     6.1212      4.678      6.786    11.2284 0.0000e+00
      4.782      0.124     6.1820     55.899     46.347  33.575935     0.4222      9.071    12.0755 2.8926e-01     5.9909      4.696      6.811    11.2271 0.0000e+00
      4.787      0.130     6.1739     55.879     46.328  33.562925     0.3936      9.072    11.8764 2.8095e-01     5.9065      4.692      6.805    11.2228 0.0000e+00
      4.797      0.140     6.1503     55.904     46.330  33.563445     0.3766      9.072    11.6880 2.6307e-01     5.8519      4.693      6.808    11.2177 0.0000e+00
      4.833      0.151     6.1339     55.959     46.359  33.582214     0.3751      9.072    11.6046 2.3706e-01     5.8084      4.727      6.856    11.2184 0.0000e+00
      4.899      0.156     6.1328     56.019     46.387  33.599517     0.3669      9.072    11.4701 2.0718e-01     5.8596      4.801      6.963    11.2206 0.0000e+00
      4.971      0.155     6.1264     56.069     46.366  33.582319     0.3610      9.072    11.2671 1.9570e-01     5.9922      4.884      7.084    11.2207 0.0000e+00
      5.020      0.148     6.1320     56.116     46.342  33.564601     0.3780      9.072    11.1285 1.9134e-01     6.1139      4.935      7.159    11.2201 0.0000e+00
      5.039      0.136     6.1388     56.172     46.357  33.575635     0.3734      9.072    10.9980 1.8414e-01     6.1011      4.946      7.174    11.2172 0.0000e+00
      5.045      0.123     6.1466     56.191     46.376  33.588835     0.3476      9.072    10.8942 1.7361e-01     5.9738      4.941      7.167    11.2132 0.0000e+00
      5.063      0.113     6.1533     56.177     46.390  33.597306     0.3483      9.072    10.8200 1.6473e-01     5.8394      4.955      7.186    11.2111 0.0000e+00
      5.102      0.108     6.1545     56.184     46.416  33.614619     0.3818      9.071    10.7032 1.5566e-01     5.7747      5.000      7.251    11.2112 0.0000e+00
      5.150      0.104     6.1659     56.205     46.408  33.607821     0.4200      9.070    10.5145 1.4253e-01     5.8400      5.054      7.331    11.2123 0.0000e+00
      5.188      0.099     6.1675     56.229     46.368  33.578560     0.4276      9.070    10.1730 1.3480e-01     5.8428      5.096      7.391    11.2121 0.0000e+00
      5.208      0.090     6.1615     56.276     46.366  33.578040     0.4076      9.070     9.8437 1.3666e-01     5.7393      5.114      7.418    11.2091 0.0000e+00
      5.213      0.082     6.1651     56.341     46.397  33.601535     0.4020      9.071     9.6310 1.3861e-01     5.7504      5.113      7.416    11.2066 0.0000e+00
      5.217      0.078     6.1682     56.389     46.407  33.608863     0.4269      9.071     9.3213 1.3239e-01     5.8407      5.111      7.413    11.2056 0.0000e+00
      5.234      0.078     6.1688     56.386     46.401  33.603199     0.4423      9.071     9.0243 1.2571e-01     5.8745      5.125      7.435    11.2056 0.0000e+00
      5.266      0.078     6.1745     56.323     46.393  33.596486     0.4217      9.070     8.8798 1.2398e-01     5.8521      5.164      7.489    11.2066 0.0000e+00
      5.302      0.073     6.1828     56.223     46.387  33.591143     0.3941      9.069     8.6919 1.2405e-01     5.8427      5.204      7.547    11.2083 0.0000e+00
      5.327      0.062     6.1896     56.133     46.402  33.602045     0.3996      9.070     8.4741 1.2652e-01     5.8975      5.230      7.585    11.2088 0.0000e+00
      5.339      0.045     6.1900     56.075     46.399  33.601410     0.4225      9.071     8.3116 1.2877e-01     5.8995      5.240      7.600    11.2066 0.0000e+00
      5.339      0.030     6.1825     56.038     46.373  33.583463     0.4211      9.070     8.0173 1.2657e-01     5.7997      5.236      7.594    11.2047 0.0000e+00
      5.335      0.028     6.1692     56.032     46.362  33.575387     0.3911      9.069     7.6684 1.2422e-01     5.7156      5.231      7.587    11.2045 0.0000e+00
      5.333      0.043     6.1577     56.071     46.353  33.567217     0.3501      9.070     7.4493 1.2406e-01     5.7356      5.229      7.583    11.2049 0.0000e+00
      5.338      0.074     6.1531     56.142     46.334  33.548119     0.3418      9.071     7.0889 1.2402e-01     5.8717      5.231      7.586    11.2065 0.0000e+00
      5.353      0.109     6.1476     56.222     46.329  33.534797     0.3826      9.071     6.5801 1.2394e-01     6.2681      5.244      7.605    11.2081 0.0000e+00
      5.388      0.136     6.1462     56.257     46.345  33.533021     0.4276      9.070     6.2877 1.2390e-01     6.9073      5.275      7.651    11.2085 0.0000e+00
      5.445      0.147     6.1518     56.212     46.355  33.526629     0.4445      9.070     6.1347 1.2388e-01     7.3150      5.336      7.739    11.2066 0.0000e+00
      5.509      0.143     6.1606     56.107     46.360  33.520949     0.4447      9.070     5.9357 1.2384e-01     7.4404      5.410      7.846    11.2009 0.0000e+00
      5.556      0.126     6.1737     56.007     46.376  33.527765     0.4475      9.071     5.6873 1.2384e-01     7.5689      5.458      7.917    11.1911 0.0000e+00
      5.578      0.098     6.1815     55.962     46.401  33.545597     0.4619      9.071     5.3685 1.2386e-01     8.6304      5.474      7.940    11.1752 0.0000e+00
      5.585      0.068     6.1780     55.984     46.401  33.546222     0.4857      9.070     5.0065 1.2382e-01    10.6414      5.478      7.945    11.1587 0.0000e+00
      5.590      0.042     6.1646     56.065     46.385  33.535319     0.5094      9.070     4.6651 1.2381e-01    11.8315      5.481      7.950    11.1481 0.0000e+00
      5.596      0.027     6.1520     56.189     46.392  33.540663     0.5327      9.070     4.4251 1.2384e-01    12.3633      5.487      7.959    11.1438 0.0000e+00
      5.604      0.021     6.1471     56.336     46.400  33.547385     0.6426      9.070     4.2561 1.2383e-01    16.2507      5.496      7.971    11.1439 0.0000e+00
      5.610      0.019     6.1497     56.498     46.408  33.553159     0.8228      9.070     4.0841 1.2377e-01    23.2732      5.502      7.982    11.1453 0.0000e+00
      5.614      0.019     6.1590     56.672     46.399  33.547033     0.8967      9.070     3.8933 1.2375e-01    27.3477      5.505      7.985    11.1460 0.0000e+00
      5.617      0.019     6.1735     56.827     46.384  33.536763     0.9286      9.069     3.5848 1.2380e-01    31.2187      5.507      7.988    11.1464 0.0000e+00
      5.620      0.021     6.1900     56.910     46.409  33.555866     1.3085      9.069     3.1933 1.2382e-01    70.0094      5.511      7.994    11.1475 0.0000e+00
      5.625      0.025     6.2072     56.916     46.450  33.587672     1.9694      9.070     2.8590 1.2382e-01   140.8654      5.515      7.999    11.1479 0.0000e+00
      5.631      0.031     6.2279     56.908     46.649  33.730997     2.2941      9.070     2.5543 1.2384e-01   179.0224      5.521      8.007    11.1469 0.0000e+00
      5.640      0.036     6.2474     56.894     47.929  34.654344     2.2384      9.069     2.2618 1.2387e-01   178.2906      5.530      8.021    11.1473 0.0000e+00
      5.651      0.040     6.2575     56.854     58.035  41.960154     1.6535      9.069     1.9044 1.2389e-01   133.3495      5.541      8.037    11.1495 0.0000e+00
      5.664      0.042     6.2527     56.816     85.844  62.072186     0.6074      9.069     1.5029 1.2389e-01    50.4746      5.555      8.056    11.1526 0.0000e+00
      5.676      0.043     6.2519     56.789    119.760  86.621173     0.0443      9.068     1.2785 1.2390e-01     5.2391      5.567      8.074    11.1527 0.0000e+00
      5.687      0.042     6.2543     56.776    141.049 102.063889    -0.0112      9.068     1.1704 1.2391e-01     1.0715      5.577      8.089    11.1494 0.0000e+00
      5.697      0.040     6.2459     56.753    150.520 108.967556    -0.0309      9.068     0.9697 1.2388e-01     0.4607      5.587      8.102    11.1470 0.0000e+00
      5.707      0.036     6.2427     56.623    157.065 113.748253    -0.0523      9.068     0.6592 1.2387e-01     0.0744      5.596      8.116    11.1465 0.0000e+00
      5.717      0.033     6.2369     56.317    162.923 118.022298    -0.0864      9.068     0.3417 1.2384e-01    -0.1155      5.607      8.133    11.1562 0.0000e+00
      5.726      0.031     6.2316     55.829    166.940 120.958070    -0.1022      9.069     0.1413 1.2380e-01    -0.1606      5.617      8.147    11.1768 0.0000e+00
      5.731      0.030     6.2323     55.143    169.283 122.676587    -0.0849      9.069    -0.0426 1.2381e-01    -0.1975      5.619      8.150    11.1956 0.0000e+00
      5.736      0.029     6.2187     54.266    170.845 123.826240    -0.0607      9.069    -0.3333 1.2382e-01    -0.1515      5.623      8.156    11.2087 0.0000e+00
      5.744      0.029     6.1826     53.312    171.891 124.598547    -0.0602      9.069    -0.6194 1.2383e-01    -0.0499      5.633      8.170    11.2179 0.0000e+00
      5.753      0.030     6.1285     52.378    172.610 125.131757    -0.0697      9.069    -0.9208 1.2388e-01    -0.0276      5.643      8.183    11.2256 0.0000e+00
      5.761      0.030     6.0549     51.516    173.095 125.493377    -0.0514      9.069    -1.1387 1.2391e-01    -0.0178      5.650      8.193    11.2319 0.0000e+00
      5.769      0.030     5.9506     50.786    173.398 125.720509    -0.0387      9.069    -1.1024 1.2388e-01    -0.0008      5.658      8.206    11.2369 0.0000e+00
      5.778      0.028     5.8414     50.181    173.551 125.838514    -0.0487      9.068    -1.0844 1.2378e-01     0.0073      5.667      8.219    11.2412 0.0000e+00
      5.784      0.025     5.7389     49.676    173.539 125.836693    -0.0557      9.067    -1.2660 1.2374e-01     0.0461      5.672      8.226    11.2447 0.0000e+00
      5.790      0.021     5.6391     49.283    173.425 125.762226    -0.0653      9.068    -1.4047 1.2379e-01    -0.0095      5.677      8.234    11.2474 0.0000e+00
      5.796      0.017     5.5605     48.961    173.244 125.639228    -0.0816      9.069    -1.4714 1.2380e-01    -0.1530      5.685      8.245    11.2494 0.0000e+00
      5.800      0.013     5.4962     48.644    172.944 125.433032    -0.0859      9.069    -1.6423 1.2379e-01    -0.2195      5.688      8.250    11.2513 0.0000e+00
      5.802      0.009     5.4374     48.321    172.581 125.181138    -0.0757      9.070    -1.9215 1.2381e-01    -0.1991      5.690      8.252    11.2533 0.0000e+00
      5.802      0.005     5.3974     48.025    172.250 124.951740    -0.0669      9.070    -2.2668 1.2383e-01    -0.1801      5.691      8.253    11.2554 0.0000e+00
      5.802      0.003     5.3644     47.772    171.977 124.762570    -0.0622      9.070    -2.5469 1.2383e-01    -0.1950      5.690      8.253    11.2580 0.0000e+00
      5.803      0.002     5.3305     47.654    171.855 124.678401    -0.0604      9.070    -2.6412 1.2378e-01    -0.2075      5.691      8.254    11.2612 0.0000e+00
      5.803 -9.990e-29     5.2912 -9.990e-29 -9.990e-29 -9.990e-29 -9.990e-29 -9.990e-29 -9.990e-29 1.2373e-01 -9.990e-29      5.690      8.253    11.2647 0.0000e+00
      5.803 -9.990e-29     5.2597 -9.990e-29 -9.990e-29 -9.990e-29 -9.990e-29 -9.990e-29 -9.990e-29 1.2382e-01 -9.990e-29      5.690      8.253    11.2677 0.0000e+00
      5.804 -9.990e-29     5.2295 -9.990e-29 -9.990e-29 -9.990e-29 -9.990e-29 -9.990e-29 -9.990e-29 1.2394e-01 -9.990e-29      5.692      8.256    11.2709 0.0000e+00
      5.805 -9.990e-29     5.2051 -9.990e-29 -9.990e-29 -9.990e-29 -9.990e-29 -9.990e-29 -9.990e-29 1.2398e-01 -9.990e-29      5.693      8.258    11.2729 0.0000e+00
