* Sea-Bird SBE19plus  Data File:
* FileName = C:\R\Reservoirs\Data\DataNotYetUploadedToEDI\Raw_CTD\RawDownloads\111924_fcr50_S7809_0001.hex
* Software version 2.8.0.119
* Temperature SN = 7809
* Conductivity SN = 7809
* System UpLoad Time = Nov 20 2024 12:00:57
* <ApplicationData>
* <Seaterm232>
* <SoftwareVersion>2.8.0.119</SoftwareVersion>
* <BuildDate>07-Nov-2018</BuildDate>
* </Seaterm232>
* </ApplicationData>
* <InstrumentState>
* <HardwareData DeviceType='SBE19plus' SerialNumber='01907809'>
*
*    <Manufacturer>Sea-Bird Electronics, Inc.</Manufacturer>
*
*    <FirmwareVersion>3.1.8</FirmwareVersion>
*
*    <FirmwareDate>Mar  9 2016 16:22:29</FirmwareDate>
*
*    <CommandSetVersion>1.4</CommandSetVersion>
*
*    <PCBAssembly PCBSerialNum='120721' AssemblyNum='41054J'/>
*
*    <PCBAssembly PCBSerialNum='120715' AssemblyNum='41967A'/>
*
*    <PCBAssembly PCBSerialNum='116699' AssemblyNum='41606'/>
*
*    <PCBAssembly PCBSerialNum='120719' AssemblyNum='41059D'/>
*
*    <MfgDate>28-Apr-2017</MfgDate>
*
*    <InternalSensors>
*
*       <Sensor id='Main Temperature'>
*
*          <type>temperature0</type>
*
*          <SerialNumber>01907809</SerialNumber>
*
*       </Sensor>
*
*       <Sensor id='Main Conductivity'>
*
*          <type>conductivity-0</type>
*
*          <SerialNumber>01907809</SerialNumber>
*
*       </Sensor>
*
*       <Sensor id='Main Pressure'>
*
*          <type>strain-0</type>
*
*          <SerialNumber>10586018</SerialNumber>
*
*       </Sensor>
*
*    </InternalSensors>
*
*    <ExternalSensors>
*
*       <Sensor id='volt 0'>
*
*          <type>pH</type>
*
*          <SerialNumber>27-0363</SerialNumber>
*
*       </Sensor>
*
*       <Sensor id='volt 1'>
*
*          <type>ORP</type>
*
*          <SerialNumber>27-0363</SerialNumber>
*
*       </Sensor>
*
*       <Sensor id='volt 2'>
*
*          <type>OXY</type>
*
*          <SerialNumber>43-0434</SerialNumber>
*
*       </Sensor>
*
*       <Sensor id='volt 3'>
*
*          <type>PAR</type>
*
*          <SerialNumber>1122</SerialNumber>
*
*       </Sensor>
*
*       <Sensor id='volt 4'>
*
*          <type>ECO AFL/FL</type>
*
*          <SerialNumber>FLNTURT-2496</SerialNumber>
*
*       </Sensor>
*
*       <Sensor id='volt 5'>
*
*          <type>ECO-NTU</type>
*
*          <SerialNumber>FLNTURT-2496</SerialNumber>
*
*       </Sensor>
*
*       <Sensor id='serial'>
*
*          <type>not assigned</type>
*
*          <SerialNumber>not assigned</SerialNumber>
*
*       </Sensor>
*
*    </ExternalSensors>
*
* </HardwareData>
* <StatusData DeviceType='SBE19plus' SerialNumber='01907809'>
*
*    <DateTime>2024-11-20T13:00:00</DateTime>
*
*    <LoggingState>not logging</LoggingState>
*
*    <EventSummary numEvents='0'/>
*
*    <Power>
*
*       <vMain>13.5</vMain>
*
*       <vLith>8.2</vLith>
*
*       <iMain>63.1</iMain>
*
*       <iPump>41.2</iPump>
*
*       <iExt01>19.3</iExt01>
*
*       <iExt2345>36.5</iExt2345>
*
*    </Power>
*
*    <MemorySummary>
*
*       <Bytes>25438</Bytes>
*
*       <Samples>1106</Samples>
*
*       <SamplesFree>2859682</SamplesFree>
*
*       <SampleLength>23</SampleLength>
*
*       <Profiles>1</Profiles>
*
*    </MemorySummary>
*
* </StatusData>
* <ConfigurationData DeviceType='SBE19plus' SerialNumber='01907809'>
*
*    <ProfileMode>
*
*       <ScansToAverage>1</ScansToAverage>
*
*       <MinimumCondFreq>0</MinimumCondFreq>
*
*       <PumpDelay>45</PumpDelay>
*
*       <AutoRun>no</AutoRun>
*
*       <IgnoreSwitch>no</IgnoreSwitch>
*
*    </ProfileMode>
*
*    <Battery>
*
*       <Type>alkaline</Type>
*
*       <CutOff>7.5</CutOff>
*
*    </Battery>
*
*    <DataChannels>
*
*       <ExtVolt0>yes</ExtVolt0>
*
*       <ExtVolt1>yes</ExtVolt1>
*
*       <ExtVolt2>yes</ExtVolt2>
*
*       <ExtVolt3>yes</ExtVolt3>
*
*       <ExtVolt4>yes</ExtVolt4>
*
*       <ExtVolt5>yes</ExtVolt5>
*
*       <SBE38>no</SBE38>
*
*       <WETLABS>no</WETLABS>
*
*       <OPTODE>no</OPTODE>
*
*       <SBE63>no</SBE63>
*
*       <SeaFET>no</SeaFET>
*
*       <GTD>no</GTD>
*
*    </DataChannels>
*
*    <EchoCharacters>yes</EchoCharacters>
*
*    <OutputExecutedTag>yes</OutputExecutedTag>
*
*    <OutputFormat>raw HEX</OutputFormat>
*
* </ConfigurationData>
* <CalibrationCoefficients DeviceType='SBE19plus' SerialNumber='01907809'>
*
*    <Calibration format='TEMP1' id='Main Temperature'>
*
*       <SerialNum>01907809</SerialNum>
*
*       <CalDate>31-Jan-23</CalDate>
*
*       <TA0>1.218232e-03</TA0>
*
*       <TA1>2.815090e-04</TA1>
*
*       <TA2>-1.578887e-06</TA2>
*
*       <TA3>1.972343e-07</TA3>
*
*       <TOFFSET>0.000000e+00</TOFFSET>
*
*    </Calibration>
*
*    <Calibration format='WBCOND0' id='Main Conductivity'>
*
*       <SerialNum>01907809</SerialNum>
*
*       <CalDate>31-Jan-23</CalDate>
*
*       <G>-1.005652e+00</G>
*
*       <H>1.267963e-01</H>
*
*       <I>-1.561708e-04</I>
*
*       <J>2.645944e-05</J>
*
*       <CPCOR>-9.570000e-08</CPCOR>
*
*       <CTCOR>3.250000e-06</CTCOR>
*
*       <CSLOPE>1.000000e+00</CSLOPE>
*
*    </Calibration>
*
*    <Calibration format='STRAIN0' id='Main Pressure'>
*
*       <SerialNum>10586018</SerialNum>
*
*       <CalDate>20-Jan-23</CalDate>
*
*       <PA0>4.416439e-02</PA0>
*
*       <PA1>4.850502e-04</PA1>
*
*       <PA2>-3.090426e-12</PA2>
*
*       <PTCA0>5.254757e+05</PTCA0>
*
*       <PTCA1>1.050255e+01</PTCA1>
*
*       <PTCA2>-2.922435e-01</PTCA2>
*
*       <PTCB0>2.516687e+01</PTCB0>
*
*       <PTCB1>3.750000e-04</PTCB1>
*
*       <PTCB2>0.000000e+00</PTCB2>
*
*       <PTEMPA0>-5.470820e+01</PTEMPA0>
*
*       <PTEMPA1>5.485421e+01</PTEMPA1>
*
*       <PTEMPA2>-3.446578e-01</PTEMPA2>
*
*       <POFFSET>8.500000e-01</POFFSET>
*
*       <PRANGE>1.600000e+02</PRANGE>
*
*    </Calibration>
*
*    <Calibration format='VOLT0' id='Volt 0'>
*
*       <OFFSET>-4.920000e-02</OFFSET>
*
*       <SLOPE>1.248122e+00</SLOPE>
*
*    </Calibration>
*
*    <Calibration format='VOLT0' id='Volt 1'>
*
*       <OFFSET>-4.784000e-02</OFFSET>
*
*       <SLOPE>1.248871e+00</SLOPE>
*
*    </Calibration>
*
*    <Calibration format='VOLT0' id='Volt 2'>
*
*       <OFFSET>-4.864632e-02</OFFSET>
*
*       <SLOPE>1.248714e+00</SLOPE>
*
*    </Calibration>
*
*    <Calibration format='VOLT0' id='Volt 3'>
*
*       <OFFSET>-4.743790e-02</OFFSET>
*
*       <SLOPE>1.248571e+00</SLOPE>
*
*    </Calibration>
*
*    <Calibration format='VOLT0' id='Volt 4'>
*
*       <OFFSET>-4.671263e-02</OFFSET>
*
*       <SLOPE>1.248951e+00</SLOPE>
*
*    </Calibration>
*
*    <Calibration format='VOLT0' id='Volt 5'>
*
*       <OFFSET>-4.871053e-02</OFFSET>
*
*       <SLOPE>1.249136e+00</SLOPE>
*
*    </Calibration>
*
*    <Calibration format='FREQ0' id='external frequency channel'>
*
*       <EXTFREQSF>1.000014e+00</EXTFREQSF>
*
*    </Calibration>
*
* </CalibrationCoefficients>
* <EventCounters DeviceType='SBE19plus' SerialNumber='01907809'>
*
*    <EventSummary numEvents='0'/>
*
* </EventCounters></InstrumentState>
* <Headers>
*
* cast   1 19 Nov 2024 14:25:59 samples 1 to 1106, avg = 1, stop = mag switch
*
# nquan = 15
# nvalues = 840                         
# units = specified
# name 0 = depFM: Depth [fresh water, m]
# name 1 = dz/dtM: Descent Rate [m/s]
# name 2 = sbeox0Mg/L: Oxygen, SBE 43 [mg/l]
# name 3 = sbeox0PS: Oxygen, SBE 43 [% saturation]
# name 4 = specc: Specific Conductance [uS/cm]
# name 5 = c0uS/cm: Conductivity [uS/cm]
# name 6 = flECO-AFL: Fluorescence, WET Labs ECO-AFL/FL [mg/m^3]
# name 7 = ph: pH
# name 8 = orp: Oxidation Reduction Potential [mV]
# name 9 = par/sat/log: PAR/Logarithmic, Satlantic
# name 10 = turbWETntu0: Turbidity, WET Labs ECO [NTU]
# name 11 = prdM: Pressure, Strain Gauge [db]
# name 12 = prdE: Pressure, Strain Gauge [psi]
# name 13 = tv290C: Temperature [ITS-90, deg C]
# name 14 = flag:  0.000e+00
# span 0 =     -0.708,      7.390       
# span 1 =     -0.020,      0.193       
# span 2 =     6.7426,    11.0099       
# span 3 =     64.816,    102.920       
# span 4 =      1.145,     45.717       
# span 5 =   0.998713,  35.081778       
# span 6 =    -0.0852,     8.0807       
# span 7 =      5.786,      7.469       
# span 8 = -1193.7418,   920.3626       
# span 9 = 1.2364e-01, 3.0307e+02       
# span 10 =     0.9876,    14.1328      
# span 11 =     -0.694,      7.257      
# span 12 =     -1.007,     10.525      
# span 13 =    11.9385,    18.6403      
# span 14 = 0.0000e+00, 0.0000e+00      
# interval = seconds: 0.25
# start_time = Nov 19 2024 14:25:59 [Instrument's time stamp, header]
# bad_flag = -9.990e-29
# <Sensors count="9" >
#   <sensor Channel="1" >
#     <!-- Count, Temperature -->
#     <TemperatureSensor SensorID="58" >
#       <SerialNumber>7809</SerialNumber>
#       <CalibrationDate>31-Jan-23</CalibrationDate>
#       <A0>1.21823180e-003</A0>
#       <A1>2.81508993e-004</A1>
#       <A2>-1.57888696e-006</A2>
#       <A3>1.97234302e-007</A3>
#       <Slope>1.00000000</Slope>
#       <Offset>0.0000</Offset>
#     </TemperatureSensor>
#   </sensor>
#   <sensor Channel="2" >
#     <!-- Frequency 0, Conductivity -->
#     <ConductivitySensor SensorID="3" >
#       <SerialNumber>7809</SerialNumber>
#       <CalibrationDate>31-Jan-23</CalibrationDate>
#       <UseG_J>1</UseG_J>
#       <!-- Cell const and series R are applicable only for wide range sensors. -->
#       <SeriesR>0.0000</SeriesR>
#       <CellConst>2000.0000</CellConst>
#       <ConductivityType>0</ConductivityType>
#       <Coefficients equation="0" >
#         <A>0.00000000e+000</A>
#         <B>0.00000000e+000</B>
#         <C>0.00000000e+000</C>
#         <D>0.00000000e+000</D>
#         <M>0.0</M>
#         <CPcor>-9.57000000e-008</CPcor>
#       </Coefficients>
#       <Coefficients equation="1" >
#         <G>-1.00565232e+000</G>
#         <H>1.26796307e-001</H>
#         <I>-1.56170788e-004</I>
#         <J>2.64594368e-005</J>
#         <CPcor>-9.57000000e-008</CPcor>
#         <CTcor>3.2500e-006</CTcor>
#         <!-- WBOTC not applicable unless ConductivityType = 1. -->
#         <WBOTC>0.00000000e+000</WBOTC>
#       </Coefficients>
#       <Slope>1.00000000</Slope>
#       <Offset>0.00000</Offset>
#     </ConductivitySensor>
#   </sensor>
#   <sensor Channel="3" >
#     <!-- Count, Pressure, Strain Gauge -->
#     <PressureSensor SensorID="46" >
#       <SerialNumber>7809</SerialNumber>
#       <CalibrationDate>20-Jan-23</CalibrationDate>
#       <PA0>4.41643944e-002</PA0>
#       <PA1>4.85050239e-004</PA1>
#       <PA2>-3.09042623e-012</PA2>
#       <PTEMPA0>-5.47081996e+001</PTEMPA0>
#       <PTEMPA1>5.48542136e+001</PTEMPA1>
#       <PTEMPA2>-3.44657813e-001</PTEMPA2>
#       <PTCA0>5.25475731e+005</PTCA0>
#       <PTCA1>1.05025484e+001</PTCA1>
#       <PTCA2>-2.92243463e-001</PTCA2>
#       <PTCB0>2.51668750e+001</PTCB0>
#       <PTCB1>3.75000000e-004</PTCB1>
#       <PTCB2>0.00000000e+000</PTCB2>
#       <Offset>0.000000</Offset>
#     </PressureSensor>
#   </sensor>
#   <sensor Channel="4" >
#     <!-- A/D voltage 0, Oxygen, SBE 43 -->
#     <OxygenSensor SensorID="38" >
#       <SerialNumber>0434</SerialNumber>
#       <CalibrationDate>18-Feb-23</CalibrationDate>
#       <Use2007Equation>1</Use2007Equation>
#       <CalibrationCoefficients equation="0" >
#         <!-- Coefficients for Owens-Millard equation. -->
#         <Boc>0.0000</Boc>
#         <Soc>0.0000e+000</Soc>
#         <offset>0.0000</offset>
#         <Pcor>0.00e+000</Pcor>
#         <Tcor>0.0000</Tcor>
#         <Tau>0.0</Tau>
#       </CalibrationCoefficients>
#       <CalibrationCoefficients equation="1" >
#         <!-- Coefficients for Sea-Bird equation - SBE calibration in 2007 and later. -->
#         <Soc>5.1878e-001</Soc>
#         <offset>-0.5046</offset>
#         <A>-4.2788e-003</A>
#         <B> 1.5372e-004</B>
#         <C>-2.1853e-006</C>
#         <D0> 2.5826e+000</D0>
#         <D1> 1.92634e-004</D1>
#         <D2>-4.64803e-002</D2>
#         <E> 3.6000e-002</E>
#         <Tau20> 0.9900</Tau20>
#         <H1>-3.3000e-002</H1>
#         <H2> 5.0000e+003</H2>
#         <H3> 1.4500e+003</H3>
#       </CalibrationCoefficients>
#     </OxygenSensor>
#   </sensor>
#   <sensor Channel="5" >
#     <!-- A/D voltage 1, PAR/Logarithmic, Satlantic -->
#     <PARLog_SatlanticSensor SensorID="76" >
#       <SerialNumber>1122</SerialNumber>
#       <CalibrationDate>08-Sep-2021</CalibrationDate>
#       <a0>9.6751e-001</a0>
#       <a1>8.0992e-001</a1>
#       <Im>1.3589e+000</Im>
#       <Multiplier>1.0000e+000</Multiplier>
#     </PARLog_SatlanticSensor>
#   </sensor>
#   <sensor Channel="6" >
#     <!-- A/D voltage 2, pH -->
#     <pH_Sensor SensorID="43" >
#       <SerialNumber>0363</SerialNumber>
#       <CalibrationDate>28-Feb-23</CalibrationDate>
#       <Slope>4.7364</Slope>
#       <Offset>2.5433</Offset>
#     </pH_Sensor>
#   </sensor>
#   <sensor Channel="7" >
#     <!-- A/D voltage 3, Oxidation Reduction Potential -->
#     <OxidationReductionPotentialSensor SensorID="41" >
#       <SerialNumber>0363</SerialNumber>
#       <CalibrationDate>28-Feb-23</CalibrationDate>
#       <B>2.499480</B>
#       <M>-0.496195</M>
#       <Offset>0.0</Offset>
#     </OxidationReductionPotentialSensor>
#   </sensor>
#   <sensor Channel="8" >
#     <!-- A/D voltage 4, Fluorometer, WET Labs ECO-AFL/FL -->
#     <FluoroWetlabECO_AFL_FL_Sensor SensorID="20" >
#       <SerialNumber>FLNTURT-2496</SerialNumber>
#       <CalibrationDate>02-Sep-2021</CalibrationDate>
#       <ScaleFactor>4.80000000e+001</ScaleFactor>
#       <!-- Dark output -->
#       <Vblank>0.0550</Vblank>
#     </FluoroWetlabECO_AFL_FL_Sensor>
#   </sensor>
#   <sensor Channel="9" >
#     <!-- A/D voltage 5, Turbidity Meter, WET Labs, ECO-NTU -->
#     <TurbidityMeter SensorID="67" >
#       <SerialNumber>FLNTURT--2496</SerialNumber>
#       <CalibrationDate>02-Sep-2021</CalibrationDate>
#       <ScaleFactor>197.000000</ScaleFactor>
#       <!-- Dark output -->
#       <DarkVoltage>0.070000</DarkVoltage>
#     </TurbidityMeter>
#   </sensor>
# </Sensors>
# datcnv_date = Nov 20 2024 12:06:33, 7.26.7.129 [datcnv_vars = 14]
# datcnv_in = C:\R\Reservoirs\Data\DataNotYetUploadedToEDI\Raw_CTD\RawDownloads\111924_fcr50_S7809001.hex C:\R\Reservoirs\Data\DataNotYetUploadedToEDI\Raw_CTD\RawDownloads\SBE19plusV2_7809_start20230701.xmlcon
# datcnv_skipover = 0
# datcnv_ox_hysteresis_correction = yes
# datcnv_ox_tau_correction = yes
# filter_date = Nov 20 2024 12:07:59, 7.26.7.129
# filter_in = C:\R\Reservoirs\Data\DataNotYetUploadedToEDI\Raw_CTD\RawDownloads\111924_fcr50_S7809001.cnv
# filter_low_pass_tc_A = 0.030
# filter_low_pass_tc_B = 0.150
# filter_low_pass_A_vars = sbeox0Mg/L prdM prdE tv290C
# filter_low_pass_B_vars = depFM dz/dtM sbeox0PS specc c0uS/cm flECO-AFL ph orp par/sat/log turbWETntu0
# alignctd_date = Nov 20 2024 12:09:10, 7.26.7.129
# alignctd_in = C:\R\Reservoirs\Data\DataNotYetUploadedToEDI\Raw_CTD\RawDownloads\111924_fcr50_S7809001.cnv
# alignctd_adv = dz/dtM 1.000, sbeox0PS 1.000, specc 1.000, c0uS/cm 1.000, flECO-AFL 1.000, ph 1.000, orp 1.000, turbWETntu0 1.000                                                                                                   
# file_type = ascii
*END*
     -0.708 2.2410e-17     8.3139     89.052      1.248   1.088594    -0.0688      6.232 -1193.7418 1.7674e+02     1.0300     -0.694     -1.006    18.6174 0.0000e+00
     -0.708 2.4698e-16     8.3201     89.048      1.220   1.064409    -0.0586      6.095  -765.3083 2.1206e+02     1.0841     -0.694     -1.006    18.6176 0.0000e+00
     -0.708 2.7168e-15     8.3206     89.044      1.177   1.026718    -0.0521      5.867    -1.6894 2.5046e+02     1.1209     -0.694     -1.006    18.6181 0.0000e+00
     -0.708 2.9885e-14     8.3216     89.037      1.161   1.012917    -0.0488      5.786   349.0922 2.7349e+02     1.0981     -0.694     -1.007    18.6185 0.0000e+00
     -0.708 3.2874e-13     8.3264     89.009      1.174   1.024225    -0.0442      5.837   284.7667 2.8887e+02     1.0816     -0.694     -1.006    18.6190 0.0000e+00
     -0.708 3.6161e-12     8.3231     88.997      1.189   1.036759    -0.0541      5.887   189.7021 2.9834e+02     1.0587     -0.694     -1.006    18.6196 0.0000e+00
     -0.708 3.9777e-11     8.3228     89.012      1.190   1.037786    -0.0685      5.916    97.3220 2.9151e+02     0.9916     -0.694     -1.006    18.6198 0.0000e+00
     -0.708 4.3755e-10     8.3248     89.027      1.188   1.036644    -0.0596      5.931     7.7223 2.8026e+02     0.9876     -0.694     -1.006    18.6201 0.0000e+00
     -0.708 4.8130e-09     8.3186     89.026      1.173   1.022946    -0.0468      5.941   -72.5683 2.6472e+02     1.0448     -0.694     -1.007    18.6200 0.0000e+00
     -0.708 5.2943e-08     8.3178     89.030      1.145   0.998854    -0.0633      5.951  -138.9477 2.2512e+02     1.0338     -0.694     -1.007    18.6203 0.0000e+00
     -0.708 5.8238e-07     8.3206     89.062      1.145   0.998713    -0.0852      5.965  -219.3477 1.7752e+02     0.9921     -0.694     -1.007    18.6201 0.0000e+00
     -0.708      0.000     8.3225     89.083      1.171   1.021233    -0.0699      5.981  -321.6050 1.4185e+02     1.0186     -0.694     -1.006    18.6208 0.0000e+00
     -0.708      0.000     8.3220     89.065      1.167   1.017777    -0.0453      5.988  -385.1916 1.2299e+02     1.0460     -0.694     -1.007    18.6198 0.0000e+00
     -0.708      0.001     8.3198     89.049      1.243   1.083604    -0.0452      5.979  -375.6546 1.2170e+02     1.0505     -0.694     -1.006    18.6215 0.0000e+00
     -0.707      0.004     8.3257     89.059      2.379   2.070502    -0.0029      6.068     8.6327 1.3114e+02     1.3467     -0.694     -1.006    18.6189 0.0000e+00
     -0.707      0.014     8.3290     89.079      7.721   6.679144     0.6416      6.278   744.2525 1.4529e+02     4.6950     -0.693     -1.005    18.6233 0.0000e+00
     -0.707      0.037     8.3251     89.118     18.463  15.747889     1.8372      6.369   920.3626 1.6288e+02    10.8253     -0.694     -1.006    18.6157 0.0000e+00
     -0.706      0.069     8.3216     89.187     30.378  25.400415     2.4930      6.272   497.9696 1.8406e+02    14.1175     -0.692     -1.004    18.6279 0.0000e+00
     -0.698      0.103     8.3256     89.279     38.531  31.584518     2.6290      6.148   250.9909 2.0456e+02    14.1328     -0.694     -1.006    18.6083 0.0000e+00
     -0.665      0.135     8.3252     89.724     41.577  33.502435     3.4980      6.069   231.3267 2.2589e+02    11.7619     -0.668     -0.967    18.6403 0.0000e+00
     -0.604      0.165     8.3864     90.447     42.101  33.428918     5.0764      6.030   233.3676 2.4694e+02     7.4158     -0.590     -0.855    18.2542 0.0000e+00
     -0.544      0.187     8.6186     90.638     42.414  33.296239     5.9332      6.020   236.7769 2.5989e+02     5.0357     -0.525     -0.762    17.0446 0.0000e+00
     -0.498      0.193     8.8027     90.309     42.670  33.230106     6.0005      6.027   239.8532 2.6782e+02     4.8116     -0.491     -0.713    15.9719 0.0000e+00
     -0.452      0.179     8.9670     89.943     42.859  33.199993     6.0143      6.042   241.9982 2.7632e+02     4.7741     -0.448     -0.649    15.2608 0.0000e+00
     -0.398      0.154     9.2296     89.536     42.990  33.185722     6.2499      6.058   241.7173 2.8372e+02     4.8560     -0.388     -0.562    14.6414 0.0000e+00
     -0.351      0.130     9.3194     89.072     43.092  33.184308     6.6846      6.073   239.5540 2.8768e+02     4.9821     -0.336     -0.488    14.2049 0.0000e+00
     -0.323      0.114     9.3177     88.670     43.661  33.563459     6.9174      6.080   238.2989 2.8896e+02     5.0006     -0.310     -0.451    13.8969 0.0000e+00
     -0.312      0.103     9.3341     88.379     44.901  34.470779     6.9419      6.080   238.4151 2.8959e+02     4.9774     -0.304     -0.441    13.7051 0.0000e+00
     -0.303      0.094     9.3153     88.297     45.717  35.081778     7.0317      6.080   238.5496 2.9057e+02     4.9063     -0.302     -0.438    13.5815 0.0000e+00
     -0.283      0.087     9.2776     88.537     45.457  34.923538     7.2122      6.080   239.1510 2.9351e+02     4.8247     -0.286     -0.415    13.4920 0.0000e+00
     -0.248      0.082     9.2497     88.989     44.759  34.461029     7.3267      6.082   239.6636 2.9819e+02     4.8106     -0.243     -0.353    13.4293 0.0000e+00
     -0.212      0.074     9.2276     89.476     44.179  34.057956     7.3425      6.086   239.4134 3.0139e+02     4.7696     -0.199     -0.289    13.3786 0.0000e+00
     -0.191      0.061     9.2168     89.878     43.849  33.793429     7.3789      6.090   239.9974 3.0215e+02     4.6698     -0.184     -0.265    13.3339 0.0000e+00
     -0.184      0.042     9.2390     90.098     43.677  33.610131     7.4665      6.095   241.4766 3.0252e+02     4.6642     -0.179     -0.259    13.3947 0.0000e+00
     -0.183      0.021     9.2693     90.104     43.524  33.427764     7.5273      6.102   241.9832 3.0267e+02     4.7701     -0.178     -0.258    13.5119 0.0000e+00
     -0.184      0.005     9.3105     89.931     43.347  33.237919     7.5236      6.109   241.4762 3.0253e+02     4.8217     -0.181     -0.262    13.5666 0.0000e+00
     -0.185     -0.002     9.3632     89.598     43.199  33.091086     7.2886      6.114   240.8535 3.0287e+02     4.8104     -0.181     -0.263    13.5480 0.0000e+00
     -0.187     -0.004     9.3983     88.591     43.167  33.048135     6.8496      6.120   240.7348 3.0299e+02     4.8044     -0.184     -0.266    13.4770 0.0000e+00
     -0.189     -0.002     9.4200     86.520     43.174  33.035799     6.6022      6.126   242.0202 3.0292e+02     4.8178     -0.187     -0.271    13.3927 0.0000e+00
     -0.190      0.003     9.4053     84.594     43.161  33.005357     6.5688      6.131   244.5208 3.0293e+02     4.8357     -0.187     -0.271    13.3257 0.0000e+00
     -0.190      0.009     9.3950     84.244     43.176  32.997245     6.5550      6.135   246.4497 3.0251e+02     4.8166     -0.187     -0.272    13.2910 0.0000e+00
     -0.188      0.014     9.3433     85.363     43.197  33.001145     6.5260      6.138   247.1015 3.0242e+02     4.7567     -0.187     -0.271    13.2772 0.0000e+00
     -0.183      0.018     9.0589     86.933     43.187  32.989051     6.5094      6.140   247.2393 3.0288e+02     4.7272     -0.182     -0.262    13.2580 0.0000e+00
     -0.174      0.019     8.7863     88.091     43.175  32.977901     6.5210      6.142   247.5138 3.0307e+02     4.7330     -0.170     -0.246    13.2300 0.0000e+00
     -0.166      0.019     8.7774     88.749     43.198  32.993213     6.5331      6.145   248.0976 3.0083e+02     4.7244     -0.160     -0.233    13.2053 0.0000e+00
     -0.161      0.016     8.9390     89.301     43.268  33.047304     6.6477      6.149   248.7915 2.7795e+02     4.6908     -0.157     -0.227    13.1914 0.0000e+00
     -0.159      0.010     9.1441     89.685     43.367  33.124361     6.8752      6.153   249.3635 2.3715e+02     4.6679     -0.155     -0.225    13.1898 0.0000e+00
     -0.157      0.004     9.2678     89.542     43.417  33.163589     7.0107      6.159   249.6798 2.1513e+02     4.7216     -0.154     -0.224    13.1883 0.0000e+00
     -0.157      0.000     9.3064     88.962     43.390  33.140956     7.0294      6.167   249.7763 2.1679e+02     4.7940     -0.153     -0.222    13.1845 0.0000e+00
     -0.159      0.001     9.3717     88.419     43.346  33.104471     6.9424      6.173   249.9287 2.2854e+02     4.7575     -0.154     -0.224    13.1852 0.0000e+00
     -0.163      0.005     9.4356     88.253     43.343  33.103109     6.7664      6.178   250.0596 2.3801e+02     4.6563     -0.159     -0.231    13.1879 0.0000e+00
     -0.165      0.009     9.4139     88.418     43.364  33.124494     6.6674      6.183   250.0684 2.2715e+02     4.6286     -0.164     -0.237    13.1892 0.0000e+00
     -0.160      0.012     9.3297     88.581     43.340  33.109270     6.6609      6.188   250.2928 2.0722e+02     4.6962     -0.159     -0.231    13.1877 0.0000e+00
     -0.150      0.015     9.2603     88.437     43.259  33.045931     6.6041      6.193   250.7083 2.0201e+02     4.7564     -0.146     -0.212    13.1808 0.0000e+00
     -0.142      0.016     9.2459     87.975     43.187  32.993088     6.4716      6.198   251.3060 2.0616e+02     4.7076     -0.136     -0.197    13.1802 0.0000e+00
     -0.139      0.013     9.2745     87.296     43.157  32.977893     6.3897      6.204   251.8400 2.0802e+02     4.6527     -0.135     -0.196    13.1937 0.0000e+00
     -0.138      0.008     9.3076     86.424     43.157  32.989102     6.3878      6.210   251.3151 2.0751e+02     4.6723     -0.136     -0.197    13.1969 0.0000e+00
     -0.137      0.003     9.2897     85.385     43.158  33.001749     6.4485      6.216   250.2939 2.0592e+02     4.6715     -0.135     -0.195    13.1896 0.0000e+00
     -0.137      0.000     9.2356     84.381     43.149  33.003939     6.5417      6.222   250.3344 2.0639e+02     4.6436     -0.133     -0.194    13.1912 0.0000e+00
     -0.138     -0.001     9.1623     83.677     43.161  33.015587     6.5745      6.228   251.2875 2.0912e+02     4.6072     -0.135     -0.195    13.2028 0.0000e+00
     -0.140     -0.001     9.0693     83.387     43.168  33.015692     6.5708      6.234   252.4402 2.0879e+02     4.5388     -0.139     -0.201    13.2173 0.0000e+00
     -0.140     -0.001     8.9496     83.538     43.164  33.005208     6.6380      6.242   253.1717 2.0524e+02     4.5690     -0.138     -0.201    13.2312 0.0000e+00
     -0.139      0.000     8.8277     84.063     43.184  33.015695     6.7620      6.248   252.7331 2.0427e+02     4.7331     -0.136     -0.198    13.2440 0.0000e+00
     -0.138      0.002     8.7526     84.804     43.186  33.015600     6.8221      6.254   251.6114 2.0581e+02     4.8494     -0.136     -0.197    13.2475 0.0000e+00
     -0.138      0.003     8.7217     85.632     43.172  33.004060     6.8156      6.259   251.1381 2.0625e+02     4.8475     -0.136     -0.197    13.2382 0.0000e+00
     -0.138      0.003     8.7416     86.417     43.173  33.003052     6.8084      6.264   251.5705 2.0537e+02     4.7779     -0.135     -0.196    13.2269 0.0000e+00
     -0.137      0.002     8.8061     87.025     43.178  33.003414     6.8757      6.269   252.4525 2.0471e+02     4.7600     -0.134     -0.194    13.2218 0.0000e+00
     -0.136      0.002     8.8866     87.389     43.189  33.008431     7.0216      6.274   253.0263 2.0505e+02     4.8021     -0.133     -0.194    13.2219 0.0000e+00
     -0.136      0.002     8.9787     87.536     43.184  33.000261     7.1081      6.280   252.8292 2.0520e+02     4.8080     -0.133     -0.194    13.2222 0.0000e+00
     -0.135      0.002     9.0669     87.510     43.149  32.968079     7.1065      6.286   252.4792 2.0391e+02     4.7631     -0.132     -0.192    13.2192 0.0000e+00
     -0.135      0.001     9.1349     87.341     43.114  32.936521     7.0512      6.291   252.4932 2.0280e+02     4.7380     -0.133     -0.193    13.2150 0.0000e+00
     -0.135      0.001     9.1713     87.100     43.117  32.935906     6.9725      6.297   252.6546 2.0242e+02     4.7772     -0.132     -0.192    13.2112 0.0000e+00
     -0.135      0.001     9.1856     86.857     43.147  32.960639     6.9373      6.302   252.7965 2.0231e+02     4.7934     -0.132     -0.191    13.2061 0.0000e+00
     -0.135      0.000     9.1850     86.668     43.168  32.981797     6.9249      6.307   253.3476 2.0243e+02     4.7977     -0.132     -0.192    13.1993 0.0000e+00
     -0.134 1.8950e-08     9.1643     86.561     43.186  33.001406     6.8399      6.312   254.2426 2.0205e+02     4.7937     -0.132     -0.191    13.1929 0.0000e+00
     -0.134 2.0845e-07     9.1383     86.532     43.190  33.007401     6.6914      6.318   254.4973 2.0186e+02     4.7457     -0.132     -0.191    13.1894 0.0000e+00
     -0.134 2.4231e-07     9.1091     86.559     43.168  32.990853     6.6196      6.323   254.1893 2.0245e+02     4.7641     -0.132     -0.191    13.1916 0.0000e+00
     -0.134 4.2845e-07     9.0876     86.606     43.172  32.991644     6.6372      6.328   254.1324 2.0302e+02     4.7767     -0.132     -0.191    13.1987 0.0000e+00
     -0.135      0.000     9.0744     86.674     43.206  33.016969     6.7215      6.333   254.2398 2.0299e+02     4.6932     -0.132     -0.192    13.2064 0.0000e+00
     -0.135      0.000     9.0723     86.951     43.239  33.043288     6.8652      6.337   254.8858 2.0263e+02     4.6431     -0.132     -0.192    13.2106 0.0000e+00
     -0.134      0.001     9.0751     87.428     43.251  33.056092     6.9436      6.342   256.0920 2.0283e+02     4.6831     -0.131     -0.191    13.2094 0.0000e+00
     -0.134      0.001     9.0848     87.611     43.227  33.044899     6.9528      6.347   256.6925 2.0304e+02     4.7670     -0.131     -0.191    13.2061 0.0000e+00
     -0.134      0.001     9.0831     87.333     43.204  33.034852     6.9178      6.352   256.7263 2.0234e+02     4.8379     -0.132     -0.191    13.2043 0.0000e+00
     -0.133      0.001     9.0996     86.838     43.228  33.061506     6.8293      6.356   256.5004 2.0180e+02     4.8915     -0.130     -0.189    13.2056 0.0000e+00
     -0.133      0.001     9.1869     86.225     43.283  33.113416     6.7891      6.360   256.0259 2.0176e+02     4.9369     -0.130     -0.189    13.2108 0.0000e+00
     -0.133      0.000     9.2068     85.505     43.320  33.154948     6.7983      6.365   256.6680 2.0171e+02     4.9767     -0.130     -0.188    13.2191 0.0000e+00
     -0.133 2.2006e-08     9.1571     84.699     43.335  33.183021     6.7903      6.369   258.3274 2.0200e+02     4.9970     -0.130     -0.189    13.2277 0.0000e+00
     -0.133 2.4206e-07     9.1057     83.859     43.334  33.199092     6.7590      6.373   259.1399 2.0205e+02     4.9080     -0.131     -0.190    13.2370 0.0000e+00
     -0.133 6.1363e-07     9.0373     83.071     43.342  33.222396     6.7111      6.377   259.1783 2.0157e+02     4.7545     -0.130     -0.189    13.2483 0.0000e+00
     -0.133      0.000     8.9597     82.415     43.388  33.274485     6.6859      6.381   258.7919 2.0162e+02     4.7127     -0.131     -0.190    13.2631 0.0000e+00
     -0.133      0.000     8.8682     81.861     43.429  33.321355     6.6956      6.384   258.0810 2.0235e+02     4.7449     -0.130     -0.189    13.2824 0.0000e+00
     -0.133      0.001     8.7744     81.318     43.441  33.345017     6.7206      6.387   258.4125 2.0328e+02     4.6997     -0.130     -0.188    13.3033 0.0000e+00
     -0.133      0.001     8.6824     80.752     43.456  33.370258     6.7385      6.389   259.7027 2.0373e+02     4.5755     -0.130     -0.189    13.3232 0.0000e+00
     -0.132      0.001     8.6124     80.169     43.526  33.436238     6.7360      6.391   260.5163 2.0278e+02     4.4734     -0.130     -0.188    13.3426 0.0000e+00
     -0.132     -0.001     8.5563     79.589     43.686  33.571789     6.7409      6.392   260.6793 2.0119e+02     4.4900     -0.129     -0.188    13.3607 0.0000e+00
     -0.131     -0.005     8.4964     79.030     43.888  33.740333     6.7818      6.393   260.3820 2.0072e+02     4.6385     -0.128     -0.186    13.3771 0.0000e+00
     -0.131     -0.011     8.4346     78.498     43.985  33.824536     6.8308      6.394   259.8475 2.0127e+02     4.7662     -0.128     -0.186    13.3922 0.0000e+00
     -0.132     -0.016     8.3696     77.941     43.904  33.765109     6.8426      6.395   259.5515 2.0318e+02     4.7368     -0.129     -0.187    13.4066 0.0000e+00
     -0.137     -0.019     8.3066     77.348     43.761  33.656261     6.8408      6.394   259.6415 2.1374e+02     4.6590     -0.133     -0.193    13.4199 0.0000e+00
     -0.147     -0.020     8.2434     76.808     43.667  33.587023     6.8673      6.392   259.9891 2.3035e+02     4.6799     -0.143     -0.208    13.4378 0.0000e+00
     -0.158     -0.019     8.1883     76.321     43.630  33.562410     6.9050      6.391   260.3999 2.3487e+02     4.7504     -0.157     -0.227    13.4512 0.0000e+00
     -0.163     -0.016     8.1337     75.866     43.606  33.549002     6.9144      6.392   260.9079 2.3166e+02     4.7250     -0.161     -0.235    13.4498 0.0000e+00
     -0.164     -0.011     8.0629     75.439     43.602  33.551800     6.9132      6.393   261.2276 2.3361e+02     4.6801     -0.160     -0.233    13.4506 0.0000e+00
     -0.164     -0.006     8.0092     74.999     43.652  33.596246     6.9576      6.396   260.5659 2.3537e+02     4.7199     -0.161     -0.233    13.4551 0.0000e+00
     -0.164     -0.002     7.9585     74.560     43.700  33.642296     7.0350      6.400   259.6184 2.3593e+02     4.7630     -0.161     -0.233    13.4594 0.0000e+00
     -0.164     -0.000     7.9079     74.153     43.715  33.664477     7.0923      6.403   259.7510 2.3665e+02     4.7909     -0.161     -0.233    13.4648 0.0000e+00
     -0.164      0.000     7.8674     73.773     43.711  33.674122     7.1091      6.407   260.1914 2.3679e+02     4.7495     -0.161     -0.233    13.4703 0.0000e+00
     -0.164      0.000     7.8172     73.402     43.721  33.695487     7.0883      6.411   260.5549 2.3718e+02     4.6380     -0.161     -0.234    13.4777 0.0000e+00
     -0.164      0.001     7.7694     73.025     43.751  33.732472     7.0324      6.416   261.1344 2.3728e+02     4.7066     -0.160     -0.233    13.4878 0.0000e+00
     -0.164      0.001     7.7239     72.598     43.745  33.740657     6.9655      6.421   260.5730 2.3722e+02     4.9298     -0.161     -0.234    13.5006 0.0000e+00
     -0.163      0.001     7.6845     72.170     43.715  33.731018     6.9366      6.425   259.0157 2.3722e+02     5.0133     -0.160     -0.233    13.5147 0.0000e+00
     -0.163      0.002     7.6412     71.828     43.714  33.742838     6.9244      6.429   258.4809 2.3756e+02     4.9658     -0.160     -0.232    13.5308 0.0000e+00
     -0.163      0.003     7.6035     71.518     43.718  33.756688     6.9016      6.433   259.1831 2.3968e+02     4.9017     -0.159     -0.231    13.5473 0.0000e+00
     -0.162      0.003     7.5552     71.205     43.727  33.771613     6.9011      6.434   260.1924 2.4777e+02     4.8535     -0.159     -0.230    13.5625 0.0000e+00
     -0.161      0.002     7.4994     70.906     43.748  33.796409     6.9192      6.435   260.7894 2.5443e+02     4.7925     -0.158     -0.230    13.5776 0.0000e+00
     -0.160      0.000     7.4691     70.609     43.742  33.802719     6.9288      6.438   260.2060 2.4365e+02     4.7455     -0.157     -0.227    13.5924 0.0000e+00
     -0.159     -0.001     7.4346     70.312     43.706  33.784479     6.9096      6.441   258.8180 2.2754e+02     4.7292     -0.155     -0.224    13.6045 0.0000e+00
     -0.160     -0.001     7.3989     70.036     43.674  33.766217     6.8691      6.443   258.0308 2.2765e+02     4.6975     -0.156     -0.226    13.6130 0.0000e+00
     -0.163     -0.001     7.3678     69.778     43.677  33.772262     6.8565      6.447   258.2596 2.3702e+02     4.7383     -0.160     -0.232    13.6222 0.0000e+00
     -0.164     -0.001     7.3350     69.530     43.700  33.794122     6.8730      6.452   258.9174 2.4630e+02     4.7779     -0.161     -0.234    13.6353 0.0000e+00
     -0.163      0.000     7.3005     69.293     43.670  33.776739     6.9112      6.458   259.2739 2.5758e+02     4.7672     -0.159     -0.232    13.6485 0.0000e+00
     -0.161      0.003     7.2712     69.064     43.550  33.688989     6.9599      6.463   258.9564 2.6648e+02     4.8138     -0.158     -0.229    13.6547 0.0000e+00
     -0.161      0.011     7.2450     68.830     43.387  33.557937     6.9794      6.468   258.2618 2.6925e+02     4.8968     -0.158     -0.229    13.6567 0.0000e+00
     -0.161      0.022     7.2176     68.574     43.287  33.461078     6.9808      6.470   257.8448 2.6892e+02     4.9849     -0.158     -0.230    13.6612 0.0000e+00
     -0.159      0.032     7.1925     68.356     43.326  33.469513     6.9603      6.471   257.7854 2.5668e+02     4.9907     -0.158     -0.229    13.6698 0.0000e+00
     -0.150      0.041     7.1665     68.230     43.421  33.533011     6.9232      6.473   257.8029 2.2822e+02     4.8989     -0.151     -0.219    13.6784 0.0000e+00
     -0.132      0.048     7.1457     68.133     43.504  33.594374     6.9063      6.476   258.4000 2.0142e+02     4.8651     -0.132     -0.191    13.6774 0.0000e+00
     -0.112      0.050     7.1198     68.009     43.572  33.640445     6.9055      6.480   259.4980 1.8782e+02     4.9239     -0.107     -0.155    13.6489 0.0000e+00
     -0.096      0.049     7.0989     67.880     43.592  33.645938     6.9130      6.485   259.7220 1.8424e+02     4.9614     -0.091     -0.132    13.6130 0.0000e+00
     -0.086      0.044     7.0914     67.781     43.539  33.597343     6.9150      6.492   258.6127 1.8137e+02     4.9428     -0.084     -0.122    13.6078 0.0000e+00
     -0.079      0.039     7.0833     67.709     43.417  33.496980     6.9040      6.498   257.4428 1.7687e+02     4.9376     -0.077     -0.112    13.6103 0.0000e+00
     -0.072      0.037     7.0704     67.617     43.367  33.447559     6.9046      6.503   257.2783 1.7364e+02     4.9672     -0.071     -0.102    13.6001 0.0000e+00
     -0.065      0.039     7.0567     67.452     43.469  33.507333     6.9142      6.509   258.5167 1.6941e+02     4.9931     -0.064     -0.092    13.5884 0.0000e+00
     -0.056      0.043     7.0487     67.258     43.507  33.521793     6.9203      6.515   260.2843 1.6421e+02     4.9428     -0.057     -0.082    13.5783 0.0000e+00
     -0.042      0.048     7.0427     67.091     43.401  33.432042     6.9199      6.520   260.8405 1.5906e+02     4.8032     -0.045     -0.065    13.5750 0.0000e+00
     -0.026      0.053     7.0389     66.929     43.346  33.373812     6.9090      6.523   260.6820 1.5569e+02     4.7061     -0.023     -0.034    13.5668 0.0000e+00
     -0.011      0.057     7.0237     66.775     43.391  33.388720     6.9139      6.527   260.4322 1.5368e+02     4.7588     -0.009     -0.013    13.5340 0.0000e+00
      0.002      0.059     7.0023     66.657     43.527  33.485378     6.9207      6.531   259.8859 1.4968e+02     4.8605     -0.001     -0.001    13.5156 0.0000e+00
      0.017      0.056     6.9883     66.576     43.739  33.654277     6.9079      6.536   260.5298 1.4517e+02     4.8765      0.016      0.022    13.5183 0.0000e+00
      0.035      0.051     6.9736     66.532     43.889  33.781321     6.8843      6.541   262.4527 1.4187e+02     4.7820      0.035      0.050    13.4968 0.0000e+00
      0.050      0.047     6.9606     66.516     43.924  33.816021     6.8514      6.546   263.6043 1.3882e+02     4.6735      0.050      0.074    13.4651 0.0000e+00
      0.061      0.042     6.9509     66.489     43.923  33.820058     6.8186      6.552   263.6985 1.3652e+02     4.6926      0.061      0.089    13.4541 0.0000e+00
      0.068      0.038     6.9401     66.427     43.847  33.766688     6.7871      6.560   263.3336 1.3539e+02     4.7733      0.067      0.098    13.4669 0.0000e+00
      0.073      0.037     6.9328     66.325     43.645  33.614849     6.7618      6.566   262.8057 1.3413e+02     4.7618      0.072      0.103    13.4849 0.0000e+00
      0.080      0.040     6.9324     66.169     43.504  33.506855     6.7460      6.571   262.7370 1.3253e+02     4.6897      0.079      0.114    13.4900 0.0000e+00
      0.089      0.046     6.9298     65.986     43.464  33.476064     6.7956      6.576   263.2774 1.3062e+02     4.7222      0.087      0.127    13.4964 0.0000e+00
      0.101      0.053     6.9213     65.852     43.408  33.432887     6.9124      6.580   264.0908 1.2697e+02     4.8811      0.097      0.140    13.5033 0.0000e+00
      0.118      0.060     6.9115     65.776     43.409  33.428906     6.9842      6.584   264.9147 1.2257e+02     5.0053      0.116      0.168    13.5069 0.0000e+00
      0.138      0.065     6.8952     65.760     43.506  33.491370     6.9895      6.589   265.6662 1.1925e+02     4.9947      0.137      0.199    13.5091 0.0000e+00
      0.156      0.066     6.8704     65.824     43.595  33.553676     6.9680      6.595   266.1226 1.1634e+02     4.9235      0.152      0.222    13.5042 0.0000e+00
      0.173      0.064     6.8583     65.966     43.577  33.547794     6.9491      6.600   265.8728 1.1310e+02     4.9298      0.170      0.246    13.5090 0.0000e+00
      0.191      0.060     6.8500     66.151     43.479  33.483705     6.9606      6.604   265.4856 1.1024e+02     5.0023      0.189      0.274    13.5070 0.0000e+00
      0.206      0.057     6.8506     66.322     43.469  33.476683     6.9831      6.605   266.0009 1.0849e+02     5.0138      0.205      0.297    13.4832 0.0000e+00
      0.216      0.055     6.8600     66.480     43.542  33.526335     6.9872      6.605   267.1132 1.0735e+02     4.9670      0.213      0.309    13.4716 0.0000e+00
      0.226      0.054     6.8716     66.612     43.536  33.513035     7.0602      6.605   268.2654 1.0532e+02     4.9830      0.219      0.317    13.4879 0.0000e+00
      0.241      0.055     6.8939     66.710     43.456  33.442760     7.2251      6.605   269.0905 1.0226e+02     5.0367      0.236      0.343    13.5073 0.0000e+00
      0.259      0.058     6.9080     66.788     43.463  33.437958     7.3251      6.604   268.7441 9.9919e+01     5.0350      0.257      0.373    13.5071 0.0000e+00
      0.273      0.061     6.9286     66.847     43.579  33.518412     7.3366      6.604   267.8628 9.8196e+01     5.0314      0.268      0.388    13.4952 0.0000e+00
      0.287      0.062     6.9444     66.902     43.674  33.590737     7.3392      6.605   267.8986 9.5778e+01     5.0265      0.279      0.405    13.4850 0.0000e+00
      0.305      0.060     6.9539     66.947     43.698  33.614544     7.3564      6.608   268.3166 9.2968e+01     5.0107      0.299      0.434    13.4776 0.0000e+00
      0.324      0.057     6.9655     66.957     43.690  33.615935     7.3860      6.611   268.9595 9.0708e+01     5.0110      0.318      0.462    13.4645 0.0000e+00
      0.339      0.056     6.9719     66.888     43.667  33.607562     7.4060      6.615   269.3909 8.9108e+01     4.9950      0.332      0.483    13.4488 0.0000e+00
      0.350      0.055     6.9789     66.775     43.614  33.576757     7.4325      6.617   268.6276 8.7743e+01     4.9549      0.343      0.497    13.4498 0.0000e+00
      0.360      0.055     6.9816     66.662     43.586  33.560713     7.4732      6.618   268.0768 8.6107e+01     4.9014      0.352      0.511    13.4591 0.0000e+00
      0.373      0.054     6.9858     66.508     43.640  33.603910     7.4897      6.619   268.4102 8.4098e+01     4.9285      0.365      0.529    13.4669 0.0000e+00
      0.389      0.054     6.9740     66.310     43.700  33.654943     7.4993      6.620   269.0444 8.1944e+01     5.0097      0.381      0.552    13.4789 0.0000e+00
      0.406      0.053     6.9566     66.121     43.708  33.670190     7.5397      6.622   269.7224 7.9885e+01     4.9269      0.398      0.577    13.4920 0.0000e+00
      0.422      0.051     6.9482     65.942     43.682  33.661385     7.5864      6.625   269.8973 7.8322e+01     4.7479      0.415      0.602    13.4986 0.0000e+00
      0.434      0.049     6.9323     65.756     43.606  33.611948     7.5974      6.628   269.5242 7.7189e+01     4.6893      0.426      0.618    13.4964 0.0000e+00
      0.443      0.048     6.9074     65.583     43.476  33.516563     7.5814      6.632   269.2553 7.6229e+01     4.7307      0.435      0.631    13.5005 0.0000e+00
      0.453      0.049     6.8860     65.417     43.408  33.459764     7.5768      6.635   269.3988 7.5237e+01     4.7704      0.443      0.643    13.5138 0.0000e+00
      0.463      0.050     6.8679     65.260     43.469  33.496186     7.5831      6.638   269.6252 7.3834e+01     4.7939      0.452      0.655    13.5277 0.0000e+00
      0.476      0.052     6.8437     65.171     43.582  33.576260     7.5827      6.641   269.8408 7.2010e+01     4.8430      0.466      0.677    13.5391 0.0000e+00
      0.493      0.053     6.8255     65.123     43.697  33.666597     7.5804      6.644   270.6295 6.9979e+01     4.8864      0.483      0.700    13.5463 0.0000e+00
      0.511      0.051     6.8107     65.023     43.734  33.700226     7.5885      6.648   271.6763 6.8139e+01     4.9432      0.502      0.727    13.5426 0.0000e+00
      0.526      0.047     6.7919     64.918     43.603  33.602203     7.6389      6.653   272.0005 6.6930e+01     5.0167      0.518      0.751    13.5231 0.0000e+00
      0.536      0.043     6.7853     64.873     43.134  33.242749     7.7069      6.658   272.0536 6.6215e+01     4.9895      0.527      0.764    13.5119 0.0000e+00
      0.542      0.041     6.7868     64.816     42.398  32.653138     7.7196      6.663   271.8883 6.5600e+01     4.9218      0.533      0.773    13.5196 0.0000e+00
      0.548      0.041     6.7708     64.825     41.984  32.246488     7.7098      6.667   271.4651 6.4757e+01     4.9495      0.537      0.779    13.5272 0.0000e+00
      0.557      0.043     6.7554     65.620     42.037  32.132370     7.6712      6.670   272.5295 6.3450e+01     5.0173      0.545      0.790    13.5264 0.0000e+00
      0.570      0.047     6.7542     68.252     42.215  32.097898     7.5782      6.675   274.5190 6.1912e+01     5.0244      0.559      0.811    13.5358 0.0000e+00
      0.585      0.050     6.7521     72.957     42.378  32.083244     7.5169      6.679   275.1278 6.0394e+01     4.9670      0.574      0.833    13.5374 0.0000e+00
      0.601      0.052     6.7426     78.976     42.504  32.081912     7.4964      6.684   274.4700 5.8830e+01     4.9037      0.589      0.855    13.4354 0.0000e+00
      0.616      0.053     6.8016     85.355     42.587  32.081683     7.5135      6.690   273.5352 5.7464e+01     4.9763      0.606      0.879    13.2200 0.0000e+00
      0.629      0.055     7.1040     91.344     42.639  32.080409     7.5823      6.696   273.2039 5.6536e+01     5.1617      0.619      0.897    12.9978 0.0000e+00
      0.638      0.058     7.6687     96.440     42.659  32.066466     7.6204      6.701   274.1635 5.5597e+01     5.2671      0.625      0.906    12.8323 0.0000e+00
      0.650      0.061     8.3605    100.239     42.656  32.039949     7.6075      6.705   275.6740 5.4138e+01     5.2598      0.635      0.921    12.7233 0.0000e+00
      0.667      0.063     9.0796    102.394     42.652  32.013528     7.6348      6.709   276.4105 5.2277e+01     5.2098      0.652      0.947    12.6548 0.0000e+00
      0.689      0.063     9.7418    102.920     42.663  32.000747     7.7256      6.714   276.3575 5.0442e+01     5.2097      0.675      0.980    12.6101 0.0000e+00
      0.710      0.061    10.3029    102.282     42.698  32.012264     7.7894      6.718   276.1511 4.9040e+01     5.2241      0.697      1.012    12.5798 0.0000e+00
      0.726      0.058    10.7319    101.065     42.723  32.025877     7.7899      6.723   275.7221 4.8024e+01     5.1788      0.713      1.034    12.5538 0.0000e+00
      0.737      0.057    10.9683     99.644     42.742  32.038460     7.7735      6.728   275.4720 4.7169e+01     5.1404      0.724      1.050    12.5249 0.0000e+00
      0.746      0.057    11.0099     98.194     42.747  32.037516     7.7914      6.732   276.1386 4.6418e+01     5.1363      0.733      1.062    12.4982 0.0000e+00
      0.756      0.058    10.9208     96.845     42.728  32.014457     7.8482      6.736   276.8984 4.5399e+01     5.1637      0.739      1.071    12.4803 0.0000e+00
      0.771      0.061    10.7793     95.683     42.738  32.013410     7.8946      6.740   277.0015 4.3890e+01     5.2314      0.753      1.093    12.4752 0.0000e+00
      0.793      0.062    10.6235     94.728     42.761  32.024840     7.9034      6.745   276.8693 4.2240e+01     5.2721      0.778      1.128    12.4779 0.0000e+00
      0.815      0.059    10.4638     93.970     42.766  32.025775     7.9211      6.750   276.7629 4.0905e+01     5.2804      0.801      1.163    12.4732 0.0000e+00
      0.832      0.054    10.3201     93.395     42.765  32.024716     7.9661      6.755   276.4039 4.0015e+01     5.2970      0.818      1.186    12.4601 0.0000e+00
      0.844      0.048    10.1983     92.998     42.747  32.012027     7.9903      6.760   276.0556 3.9388e+01     5.2684      0.828      1.201    12.4487 0.0000e+00
      0.852      0.045    10.0989     92.758     42.730  31.999235     7.9972      6.765   276.2511 3.8921e+01     5.2074      0.835      1.212    12.4416 0.0000e+00
      0.857      0.047    10.0191     92.612     42.733  31.996928     7.9335      6.767   276.6156 3.8526e+01     5.1055      0.841      1.220    12.4390 0.0000e+00
      0.863      0.053     9.9577     92.508     42.728  31.984137     7.7940      6.767   276.9365 3.7825e+01     4.9930      0.844      1.224    12.4389 0.0000e+00
      0.876      0.059     9.9153     92.424     42.725  31.971441     7.7255      6.766   277.1190 3.6546e+01     5.0090      0.854      1.238    12.4400 0.0000e+00
      0.898      0.062     9.8924     92.334     42.737  31.970287     7.7376      6.765   276.7585 3.4966e+01     5.0600      0.878      1.275    12.4422 0.0000e+00
      0.924      0.062     9.8801     92.212     42.748  31.970183     7.7913      6.764   276.1906 3.3681e+01     4.9602      0.909      1.319    12.4384 0.0000e+00
      0.944      0.057     9.8711     92.006     42.754  31.970174     7.8832      6.762   276.1028 3.2981e+01     4.7934      0.930      1.349    12.4255 0.0000e+00
      0.955      0.048     9.8679     91.711     42.755  31.970174     7.9411      6.761   276.2128 3.2552e+01     4.7505      0.937      1.360    12.4114 0.0000e+00
      0.962      0.036     9.8600     91.389     42.753  31.970174     7.9510      6.762   276.3168 3.2138e+01     4.8170      0.943      1.367    12.3996 0.0000e+00
      0.967      0.027     9.8530     91.089     42.750  31.970173     7.8700      6.767   276.5859 3.1800e+01     4.8119      0.950      1.378    12.3902 0.0000e+00
      0.972      0.024     9.8326     90.826     42.746  31.970173     7.7015      6.771   276.6267 3.1525e+01     4.7226      0.954      1.384    12.3843 0.0000e+00
      0.976      0.025     9.7974     90.611     42.742  31.970174     7.6038      6.774   276.3794 3.1245e+01     4.6943      0.957      1.388    12.3834 0.0000e+00
      0.980      0.027     9.7611     90.473     42.736  31.970183     7.5962      6.777   276.2639 3.0840e+01     4.7092      0.960      1.393    12.3863 0.0000e+00
      0.988      0.029     9.7273     90.408     42.730  31.970286     7.6002      6.781   276.3484 3.0260e+01     4.6980      0.967      1.403    12.3891 0.0000e+00
      0.999      0.032     9.6999     90.398     42.726  31.971430     7.5697      6.785   276.5407 2.9720e+01     4.6607      0.981      1.423    12.3921 0.0000e+00
      1.009      0.034     9.6729     90.433     42.738  31.984012     7.5101      6.790   276.7821 2.9350e+01     4.6341      0.991      1.438    12.3950 0.0000e+00
      1.017      0.035     9.6588     90.499     42.749  31.995546     7.4876      6.794   277.0305 2.9007e+01     4.6497      0.996      1.445    12.4008 0.0000e+00
      1.024      0.035     9.6502     90.578     42.733  31.984012     7.5140      6.797   277.3071 2.8597e+01     4.7134      1.004      1.456    12.4080 0.0000e+00
      1.034      0.036     9.6486     90.653     42.720  31.971430     7.6381      6.801   277.5453 2.8172e+01     4.7893      1.014      1.471    12.4122 0.0000e+00
      1.043      0.039     9.6522     90.729     42.726  31.970296     7.8312      6.806   277.7595 2.7791e+01     4.7816      1.023      1.484    12.4168 0.0000e+00
      1.052      0.043     9.6584     90.801     42.736  31.970287     7.9267      6.810   278.0040 2.7460e+01     4.7229      1.033      1.498    12.4205 0.0000e+00
      1.062      0.046     9.6689     90.870     42.744  31.971318     7.9442      6.814   278.1780 2.7019e+01     4.7286      1.040      1.509    12.4210 0.0000e+00
      1.075      0.049     9.6756     90.951     42.759  31.982756     7.9923      6.817   278.4011 2.6399e+01     4.8163      1.052      1.526    12.4191 0.0000e+00
      1.090      0.052     9.6861     91.001     42.754  31.981707     8.0580      6.820   278.8953 2.5798e+01     4.9634      1.071      1.552    12.4116 0.0000e+00
      1.105      0.054     9.6971     90.980     42.724  31.958637     8.0807      6.825   279.4208 2.5300e+01     5.0376      1.084      1.573    12.4003 0.0000e+00
      1.118      0.055     9.7032     90.905     42.730  31.957579     8.0596      6.830   279.6780 2.4785e+01     4.9624      1.094      1.589    12.3925 0.0000e+00
      1.132      0.055     9.7152     90.804     42.756  31.968904     8.0357      6.833   279.7683 2.4242e+01     4.9427      1.109      1.609    12.3931 0.0000e+00
      1.146      0.054     9.7207     90.688     42.767  31.968677     8.0247      6.835   279.9104 2.3768e+01     5.0041      1.125      1.632    12.4013 0.0000e+00
      1.159      0.054     9.7163     90.510     42.762  31.954827     8.0270      6.837   279.9342 2.3281e+01     5.0215      1.136      1.647    12.4025 0.0000e+00
      1.173      0.053     9.7108     90.256     42.740  31.928307     8.0129      6.839   279.8835 2.2733e+01     5.0505      1.150      1.667    12.3921 0.0000e+00
      1.188      0.051     9.6991     89.986     42.715  31.901781     7.9534      6.841   280.1579 2.2255e+01     5.1160      1.167      1.692    12.3828 0.0000e+00
      1.201      0.051     9.6928     89.701     42.702  31.887845     7.8992      6.845   280.5850 2.1882e+01     5.1976      1.179      1.710    12.3740 0.0000e+00
      1.212      0.052     9.6778     89.351     42.705  31.886682     7.8990      6.848   281.0896 2.1567e+01     5.2516      1.189      1.725    12.3605 0.0000e+00
      1.223      0.053     9.6489     88.951     42.714  31.887710     7.9006      6.849   281.6981 2.1237e+01     5.2230      1.199      1.739    12.3472 0.0000e+00
      1.236      0.055     9.6223     88.571     42.740  31.900274     7.8858      6.852   282.0923 2.0763e+01     5.1585      1.210      1.755    12.3379 0.0000e+00
      1.252      0.058     9.5966     88.219     42.765  31.911704     7.9118      6.857   281.6398 2.0223e+01     5.1890      1.228      1.781    12.3338 0.0000e+00
      1.268      0.061     9.5592     87.877     42.758  31.899028     7.9726      6.860   280.6144 1.9794e+01     5.2853      1.245      1.806    12.3317 0.0000e+00
      1.283      0.062     9.5121     87.543     42.733  31.873871     8.0134      6.863   280.3630 1.9373e+01     5.2640      1.257      1.824    12.3257 0.0000e+00
      1.300      0.061     9.4749     87.162     42.725  31.861288     8.0135      6.866   281.0093 1.8873e+01     5.1708      1.274      1.847    12.3169 0.0000e+00
      1.318      0.060     9.4405     86.704     42.750  31.873757     7.9486      6.870   281.8903 1.8429e+01     5.1147      1.293      1.875    12.3079 0.0000e+00
      1.333      0.059     9.4038     86.217     42.790  31.897746     7.8451      6.875   282.4118 1.8104e+01     5.0637      1.310      1.898    12.2990 0.0000e+00
      1.346      0.058     9.3734     85.704     42.796  31.897581     7.7866      6.878   281.2913 1.7809e+01     5.0318      1.320      1.913    12.2904 0.0000e+00
      1.359      0.057     9.3369     85.130     42.768  31.871747     7.7736      6.879   279.0104 1.7432e+01     5.0020      1.331      1.930    12.2826 0.0000e+00
      1.374      0.055     9.2846     84.560     42.728  31.839147     7.7541      6.882   278.0651 1.7020e+01     4.9432      1.348      1.955    12.2762 0.0000e+00
      1.389      0.053     9.2336     84.081     42.707  31.820606     7.7258      6.885   278.8956 1.6671e+01     4.9697      1.363      1.976    12.2699 0.0000e+00
      1.403      0.050     9.1843     83.689     42.732  31.837884     7.7228      6.886   280.2765 1.6392e+01     5.0496      1.377      1.996    12.2634 0.0000e+00
      1.416      0.046     9.1200     83.356     42.760  31.857736     7.7265      6.890   280.9952 1.6144e+01     5.0203      1.389      2.014    12.2579 0.0000e+00
      1.427      0.040     9.0545     83.109     42.778  31.870319     7.7280      6.895   280.0137 1.5943e+01     4.9228      1.401      2.031    12.2543 0.0000e+00
      1.437      0.035     9.0054     82.982     42.768  31.863135     7.7585      6.900   278.0455 1.5812e+01     4.8628      1.411      2.046    12.2517 0.0000e+00
      1.445      0.033     8.9661     82.977     42.730  31.834313     7.7872      6.903   277.0733 1.5686e+01     4.9092      1.417      2.055    12.2500 0.0000e+00
      1.450      0.034     8.9282     83.066     42.736  31.839033     7.7921      6.906   277.1205 1.5587e+01     5.0396      1.423      2.063    12.2488 0.0000e+00
      1.455      0.037     8.9006     83.177     42.759  31.856763     7.8254      6.910   277.7551 1.5479e+01     5.0730      1.427      2.069    12.2479 0.0000e+00
      1.463      0.041     8.8871     83.289     42.762  31.858374     7.8986      6.914   278.8959 1.5213e+01     4.9713      1.432      2.078    12.2481 0.0000e+00
      1.477      0.045     8.8869     83.446     42.764  31.858507     7.9453      6.917   278.9544 1.4878e+01     4.9033      1.448      2.101    12.2479 0.0000e+00
      1.493      0.047     8.9003     83.632     42.764  31.858364     7.9573      6.920   277.6889 1.4598e+01     4.9338      1.466      2.126    12.2485 0.0000e+00
      1.508      0.047     8.9137     83.777     42.761  31.856650     7.9516      6.924   276.7587 1.4333e+01     4.9652      1.478      2.145    12.2492 0.0000e+00
      1.520      0.045     8.9219     83.862     42.735  31.837785     7.8687      6.927   276.6549 1.4123e+01     4.9747      1.492      2.164    12.2478 0.0000e+00
      1.530      0.040     8.9396     83.887     42.711  31.820589     7.7369      6.929   276.9502 1.3996e+01     5.0487      1.502      2.178    12.2460 0.0000e+00
      1.538      0.034     8.9647     83.865     42.735  31.839045     7.6811      6.930   277.4896 1.3863e+01     5.1767      1.508      2.187    12.2458 0.0000e+00
      1.546      0.028     8.9790     83.836     42.779  31.870616     7.6847      6.932   278.1863 1.3703e+01     5.2582      1.516      2.199    12.2472 0.0000e+00
      1.555      0.023     8.9883     83.795     42.803  31.885114     7.6060      6.935   278.6630 1.3590e+01     5.2483      1.526      2.212    12.2480 0.0000e+00
      1.561      0.019     8.9914     83.717     42.811  31.887462     7.4370      6.938   278.5219 1.3545e+01     5.1944      1.532      2.222    12.2483 0.0000e+00
      1.564      0.017     8.9851     83.626     42.827  31.898999     7.3225      6.941   278.0288 1.3552e+01     5.1529      1.534      2.225    12.2493 0.0000e+00
      1.564      0.017     8.9837     83.583     42.818  31.897737     7.3122      6.944   277.5193 1.3579e+01     5.1900      1.534      2.224    12.2481 0.0000e+00
      1.566      0.018     8.9818     83.614     42.770  31.872199     7.4042      6.947   277.3514 1.3547e+01     5.1986      1.535      2.225    12.2425 0.0000e+00
      1.571      0.020     8.9737     83.674     42.721  31.843990     7.5451      6.952   278.4077 1.3419e+01     5.0865      1.539      2.232    12.2385 0.0000e+00
      1.579      0.023     8.9606     83.712     42.672  31.810445     7.6088      6.957   280.0522 1.3259e+01     4.9958      1.548      2.246    12.2374 0.0000e+00
      1.587      0.027     8.9538     83.737     42.638  31.783804     7.5997      6.961   280.4578 1.3135e+01     4.9554      1.557      2.258    12.2412 0.0000e+00
      1.593      0.031     8.9563     83.777     42.635  31.775619     7.6185      6.965   279.6974 1.3058e+01     4.9745      1.563      2.267    12.2575 0.0000e+00
      1.599      0.033     8.9628     83.810     42.651  31.774918     7.6860      6.968   278.7747 1.2950e+01     5.0223      1.568      2.273    12.2707 0.0000e+00
      1.607      0.033     8.9665     83.830     42.669  31.775310     7.7249      6.971   278.4207 1.2749e+01     4.9867      1.574      2.283    12.2703 0.0000e+00
      1.619      0.034     8.9662     83.832     42.689  31.780348     7.7227      6.975   279.5476 1.2541e+01     4.9539      1.587      2.302    12.2704 0.0000e+00
      1.630      0.035     8.9747     83.807     42.689  31.772378     7.7337      6.979   281.4723 1.2409e+01     5.0010      1.600      2.321    12.2654 0.0000e+00
      1.638      0.038     8.9809     83.739     42.662  31.742382     7.7669      6.984   282.1614 1.2317e+01     5.0439      1.606      2.331    12.2466 0.0000e+00
      1.644      0.043     8.9873     83.619     42.668  31.734848     7.7913      6.987   281.5133 1.2206e+01     5.0290      1.612      2.338    12.2282 0.0000e+00
      1.653      0.048     8.9895     83.467     42.697  31.744710     7.7873      6.989   280.6049 1.2046e+01     4.9570      1.620      2.350    12.2194 0.0000e+00
      1.665      0.053     8.9890     83.302     42.697  31.734726     7.7680      6.992   280.1256 1.1799e+01     4.8906      1.631      2.365    12.2121 0.0000e+00
      1.682      0.057     8.9852     83.138     42.714  31.741004     7.7499      6.994   280.7951 1.1464e+01     4.9776      1.649      2.390    12.1996 0.0000e+00
      1.703      0.061     8.9735     82.958     42.740  31.757169     7.7431      6.995   282.1615 1.1162e+01     5.1895      1.672      2.424    12.1848 0.0000e+00
      1.721      0.063     8.9601     82.762     42.723  31.739859     7.7440      6.995   282.7938 1.0976e+01     5.2664      1.691      2.452    12.1709 0.0000e+00
      1.733      0.062     8.9433     82.583     42.709  31.722021     7.7271      6.995   282.6754 1.0789e+01     5.1904      1.700      2.465    12.1590 0.0000e+00
      1.747      0.058     8.9288     82.416     42.733  31.731797     7.6722      6.996   282.1071 1.0519e+01     5.1249      1.711      2.483    12.1509 0.0000e+00
      1.766      0.054     8.9107     82.254     42.739  31.731175     7.6048      6.998   281.2561 1.0266e+01     5.0887      1.733      2.514    12.1489 0.0000e+00
      1.781      0.052     8.8869     82.117     42.722  31.714487     7.5702      6.999   281.3346 1.0117e+01     5.0943      1.750      2.538    12.1456 0.0000e+00
      1.791      0.052     8.8713     81.984     42.734  31.720339     7.5524      7.001   282.2817 1.0013e+01     5.0898      1.756      2.548    12.1344 0.0000e+00
      1.800      0.050     8.8571     81.842     42.763  31.738490     7.4398      7.001   282.8137 9.8437e+00     5.0013      1.763      2.558    12.1232 0.0000e+00
      1.814      0.047     8.8373     81.716     42.773  31.743634     7.2497      7.002   282.7752 9.6353e+00     4.9461      1.778      2.579    12.1180 0.0000e+00
      1.829      0.045     8.8261     81.606     42.743  31.719092     7.1679      7.003   282.5057 9.4664e+00     5.0027      1.795      2.602    12.1149 0.0000e+00
      1.843      0.044     8.8131     81.497     42.713  31.695503     7.1747      7.005   282.2219 9.3265e+00     5.0371      1.808      2.621    12.1101 0.0000e+00
      1.853      0.041     8.7965     81.398     42.737  31.712181     7.1324      7.007   282.0975 9.2313e+00     4.9853      1.819      2.639    12.1071 0.0000e+00
      1.861      0.038     8.7839     81.331     42.762  31.730427     7.0562      7.010   282.1199 9.1604e+00     4.9577      1.825      2.647    12.1045 0.0000e+00
      1.868      0.035     8.7736     81.295     42.754  31.725795     7.0282      7.013   282.3210 9.0580e+00     5.0112      1.831      2.656    12.1012 0.0000e+00
      1.878      0.035     8.7621     81.284     42.740  31.719611     7.0517      7.016   282.4634 8.9483e+00     5.0854      1.841      2.671    12.0995 0.0000e+00
      1.886      0.037     8.7496     81.291     42.728  31.719099     7.1482      7.019   282.5509 8.8517e+00     5.0684      1.850      2.683    12.0984 0.0000e+00
      1.894      0.040     8.7440     81.317     42.718  31.719619     7.3123      7.021   282.7768 8.7237e+00     4.9764      1.855      2.691    12.0973 0.0000e+00
      1.905      0.042     8.7394     81.346     42.725  31.725896     7.4048      7.024   282.5275 8.5647e+00     4.9303      1.866      2.707    12.0979 0.0000e+00
      1.918      0.042     8.7382     81.361     42.739  31.731559     7.4255      7.025   281.7741 8.4218e+00     4.9553      1.881      2.729    12.1029 0.0000e+00
      1.930      0.043     8.7358     81.379     42.735  31.724649     7.4378      7.027   281.5832 8.2915e+00     4.9712      1.892      2.745    12.1149 0.0000e+00
      1.941      0.043     8.7365     81.394     42.712  31.705779     7.4041      7.030   282.0257 8.1800e+00     4.9855      1.905      2.761    12.1277 0.0000e+00
      1.951      0.043     8.7419     81.414     42.699  31.693726     7.3431      7.034   282.4784 8.0865e+00     5.0942      1.914      2.776    12.1278 0.0000e+00
      1.960      0.043     8.7421     81.435     42.722  31.705781     7.3158      7.037   282.6689 7.9626e+00     5.2269      1.920      2.785    12.1189 0.0000e+00
      1.971      0.044     8.7477     81.445     42.756  31.724651     7.3319      7.039   282.1780 7.8246e+00     5.2915      1.932      2.802    12.1140 0.0000e+00
      1.983      0.045     8.7478     81.450     42.772  31.731562     7.4047      7.042   281.2750 7.7151e+00     5.2610      1.945      2.821    12.1133 0.0000e+00
      1.995      0.047     8.7504     81.438     42.770  31.725900     7.5050      7.045   281.0427 7.6059e+00     5.1999      1.956      2.836    12.1103 0.0000e+00
      2.007      0.048     8.7559     81.390     42.767  31.719622     7.5458      7.047   281.6064 7.4731e+00     5.2014      1.968      2.854    12.1039 0.0000e+00
      2.020      0.046     8.7563     81.326     42.771  31.719093     7.5491      7.049   282.2405 7.3276e+00     5.2447      1.981      2.873    12.0968 0.0000e+00
      2.034      0.042     8.7593     81.271     42.773  31.719499     7.5529      7.051   282.4284 7.1946e+00     5.2788      1.995      2.892    12.0907 0.0000e+00
      2.045      0.038     8.7605     81.222     42.779  31.724538     7.5503      7.052   282.0716 7.0854e+00     5.2379      2.007      2.911    12.0855 0.0000e+00
      2.055      0.036     8.7549     81.170     42.766  31.716568     7.5504      7.054   281.6261 7.0106e+00     5.1599      2.016      2.924    12.0805 0.0000e+00
      2.060      0.035     8.7473     81.094     42.721  31.686579     7.5375      7.055   281.5160 6.9802e+00     5.1560      2.021      2.932    12.0763 0.0000e+00
      2.065      0.035     8.7426     81.018     42.706  31.679138     7.5196      7.056   281.6009 6.9265e+00     5.2252      2.023      2.935    12.0758 0.0000e+00
      2.074      0.037     8.7361     80.982     42.716  31.690048     7.5082      7.057   282.0509 6.8152e+00     5.2448      2.032      2.946    12.0773 0.0000e+00
      2.086      0.041     8.7330     80.969     42.713  31.691616     7.4914      7.059   282.7402 6.7142e+00     5.1881      2.047      2.968    12.0778 0.0000e+00
      2.097      0.042     8.7226     80.953     42.719  31.698102     7.4669      7.060   282.8798 6.6331e+00     5.1541      2.056      2.983    12.0822 0.0000e+00
      2.109      0.039     8.7104     80.932     42.727  31.705031     7.4281      7.060   282.6203 6.5241e+00     5.1758      2.067      2.998    12.0866 0.0000e+00
      2.123      0.034     8.7078     80.925     42.737  31.711952     7.3804      7.060   282.5282 6.4209e+00     5.2462      2.084      3.022    12.0905 0.0000e+00
      2.133      0.026     8.7063     80.949     42.747  31.718349     7.3391      7.060   282.6260 6.3800e+00     5.2535      2.095      3.038    12.0968 0.0000e+00
      2.137      0.019     8.7041     80.973     42.754  31.718936     7.3111      7.060   282.8565 6.3793e+00     5.1610      2.096      3.040    12.0981 0.0000e+00
      2.138      0.012     8.7014     80.981     42.762  31.719043     7.3003      7.061   283.1642 6.3818e+00     5.1184      2.096      3.040    12.0977 0.0000e+00
      2.138      0.006     8.6984     81.000     42.768  31.719629     7.2830      7.062   283.4217 6.3842e+00     5.1146      2.097      3.041    12.0990 0.0000e+00
      2.138      0.004     8.7036     81.031     42.778  31.726026     7.2435      7.065   283.4750 6.3923e+00     5.0806      2.097      3.041    12.0988 0.0000e+00
      2.139      0.005     8.7088     81.056     42.787  31.732947     7.2055      7.068   283.3782 6.4086e+00     5.0150      2.098      3.042    12.0923 0.0000e+00
      2.139      0.009     8.7085     81.061     42.793  31.739868     7.1900      7.072   283.3693 6.4329e+00     4.9369      2.097      3.042    12.0837 0.0000e+00
      2.140      0.015     8.7122     81.048     42.797  31.746268     7.2150      7.075   283.4528 6.4254e+00     4.9556      2.098      3.043    12.0798 0.0000e+00
      2.144      0.022     8.7162     81.029     42.792  31.746900     7.2580      7.076   283.5282 6.3778e+00     5.0358      2.102      3.048    12.0786 0.0000e+00
      2.150      0.027     8.7196     81.029     42.789  31.747515     7.2682      7.077   283.7639 6.3052e+00     5.0184      2.108      3.057    12.0792 0.0000e+00
      2.160      0.031     8.7197     81.056     42.793  31.753706     7.2561      7.078   284.0667 6.1912e+00     4.9163      2.118      3.070    12.0810 0.0000e+00
      2.173      0.034     8.7168     81.086     42.794  31.758320     7.2779      7.079   284.1777 6.0989e+00     4.8597      2.133      3.093    12.0859 0.0000e+00
      2.183      0.036     8.7124     81.110     42.765  31.739864     7.3403      7.081   284.3313 6.0597e+00     4.9152      2.141      3.106    12.0922 0.0000e+00
      2.190      0.037     8.7108     81.138     42.738  31.720881     7.3859      7.082   284.5476 6.0282e+00     5.0063      2.146      3.113    12.0945 0.0000e+00
      2.196      0.037     8.7154     81.168     42.737  31.719114     7.3878      7.083   284.7284 5.9691e+00     5.0052      2.153      3.123    12.0985 0.0000e+00
      2.206      0.037     8.7174     81.185     42.742  31.718499     7.4132      7.085   284.8827 5.8706e+00     4.9699      2.163      3.135    12.1038 0.0000e+00
      2.219      0.037     8.7186     81.178     42.739  31.713442     7.4938      7.086   284.7786 5.7900e+00     4.9891      2.178      3.158    12.1067 0.0000e+00
      2.230      0.036     8.7212     81.152     42.752  31.721400     7.5469      7.087   284.5880 5.7388e+00     4.9984      2.187      3.173    12.1094 0.0000e+00
      2.238      0.033     8.7256     81.115     42.793  31.751285     7.5553      7.089   284.7287 5.6763e+00     5.0477      2.193      3.182    12.1076 0.0000e+00
      2.246      0.031     8.7297     81.092     42.801  31.757581     7.5291      7.092   285.1028 5.6167e+00     5.0736      2.203      3.197    12.1008 0.0000e+00
      2.253      0.030     8.7283     81.080     42.768  31.734088     7.4713      7.094   285.4119 5.5838e+00     5.0033      2.212      3.207    12.0973 0.0000e+00
      2.258      0.031     8.7269     81.051     42.751  31.720986     7.4474      7.097   285.5412 5.5531e+00     5.0180      2.214      3.211    12.0966 0.0000e+00
      2.264      0.033     8.7206     81.000     42.761  31.726035     7.4564      7.100   285.3757 5.4976e+00     5.0807      2.218      3.217    12.0952 0.0000e+00
      2.274      0.037     8.7187     80.940     42.774  31.731690     7.4559      7.102   285.0449 5.4233e+00     5.0443      2.230      3.234    12.0955 0.0000e+00
      2.284      0.040     8.7188     80.878     42.772  31.725924     7.4403      7.103   284.9835 5.3379e+00     4.9533      2.241      3.250    12.0973 0.0000e+00
      2.296      0.041     8.7153     80.816     42.767  31.719750     7.4267      7.105   285.1492 5.2471e+00     4.9373      2.250      3.263    12.0969 0.0000e+00
      2.310      0.039     8.7101     80.775     42.768  31.720478     7.4323      7.107   285.4135 5.1551e+00     5.0209      2.265      3.285    12.0945 0.0000e+00
      2.322      0.035     8.7037     80.758     42.784  31.734723     7.4422      7.109   285.7701 5.0832e+00     5.0763      2.279      3.305    12.0892 0.0000e+00
      2.330      0.030     8.6996     80.750     42.821  31.765117     7.4129      7.112   285.6750 5.0421e+00     5.0945      2.287      3.317    12.0825 0.0000e+00
      2.335      0.025     8.6913     80.741     42.829  31.770780     7.3524      7.115   285.1235 5.0129e+00     5.1391      2.290      3.322    12.0803 0.0000e+00
      2.338      0.023     8.6874     80.754     42.788  31.739752     7.3272      7.118   284.8676 4.9902e+00     5.1715      2.292      3.324    12.0805 0.0000e+00
      2.342      0.024     8.6852     80.802     42.743  31.707156     7.3323      7.120   284.9046 4.9777e+00     5.2128      2.297      3.331    12.0838 0.0000e+00
      2.347      0.028     8.6843     80.853     42.725  31.693853     7.3226      7.123   285.1397 4.9592e+00     5.2281      2.301      3.337    12.0890 0.0000e+00
      2.354      0.032     8.6823     80.878     42.745  31.705785     7.3097      7.125   285.6454 4.8967e+00     5.1857      2.305      3.343    12.0883 0.0000e+00
      2.364      0.034     8.6828     80.863     42.776  31.724541     7.3093      7.126   285.8566 4.7842e+00     5.1792      2.317      3.360    12.0847 0.0000e+00
      2.378      0.033     8.6901     80.833     42.789  31.730307     7.3097      7.128   285.5431 4.6760e+00     5.1830      2.333      3.383    12.0874 0.0000e+00
      2.390      0.031     8.6956     80.793     42.768  31.712061     7.2894      7.130   285.2101 4.6093e+00     5.1975      2.346      3.403    12.0898 0.0000e+00
      2.397      0.026     8.7006     80.713     42.745  31.694249     7.2393      7.132   285.1854 4.5751e+00     5.2184      2.352      3.411    12.0844 0.0000e+00
      2.400      0.020     8.6987     80.603     42.760  31.705254     7.1952      7.133   285.2444 4.5576e+00     5.1973      2.355      3.414    12.0777 0.0000e+00
      2.402      0.014     8.6952     80.488     42.778  31.718243     7.1883      7.134   285.2344 4.5396e+00     5.2143      2.355      3.416    12.0742 0.0000e+00
      2.404      0.010     8.6946     80.392     42.788  31.724425     7.1979      7.136   285.5814 4.5165e+00     5.2537      2.357      3.418    12.0715 0.0000e+00
      2.407      0.008     8.6847     80.341     42.779  31.716559     7.2024      7.138   286.0846 4.5051e+00     5.2637      2.361      3.424    12.0693 0.0000e+00
      2.409      0.008     8.6717     80.323     42.738  31.686571     7.2014      7.142   286.0702 4.5025e+00     5.2327      2.363      3.427    12.0704 0.0000e+00
      2.411      0.008     8.6590     80.324     42.725  31.679036     7.1949      7.145   285.7518 4.4913e+00     5.1520      2.364      3.428    12.0716 0.0000e+00
      2.412      0.010     8.6464     80.349     42.735  31.688896     7.1902      7.147   285.5037 4.4832e+00     5.1072      2.366      3.431    12.0691 0.0000e+00
      2.413      0.014     8.6435     80.384     42.717  31.678921     7.1860      7.150   285.4793 4.4805e+00     5.1356      2.367      3.433    12.0659 0.0000e+00
      2.415      0.017     8.6416     80.397     42.725  31.685302     7.1767      7.152   286.2314 4.4579e+00     5.1881      2.367      3.433    12.0678 0.0000e+00
      2.420      0.019     8.6404     80.385     42.750  31.702613     7.1616      7.153   287.3700 4.4046e+00     5.1948      2.371      3.440    12.0706 0.0000e+00
      2.430      0.021     8.6432     80.368     42.746  31.697904     7.1444      7.154   287.5448 4.3614e+00     5.1832      2.384      3.458    12.0725 0.0000e+00
      2.437      0.022     8.6478     80.355     42.737  31.691807     7.1858      7.156   287.2268 4.3499e+00     5.2186      2.392      3.469    12.0783 0.0000e+00
      2.441      0.023     8.6492     80.366     42.736  31.692336     7.2869      7.159   287.0513 4.3330e+00     5.2464      2.394      3.473    12.0799 0.0000e+00
      2.445      0.023     8.6462     80.381     42.750  31.704296     7.3359      7.162   286.6279 4.3088e+00     5.2125      2.398      3.478    12.0762 0.0000e+00
      2.450      0.023     8.6465     80.386     42.755  31.709544     7.3197      7.164   287.0126 4.2810e+00     5.1501      2.402      3.484    12.0740 0.0000e+00
      2.457      0.026     8.6424     80.407     42.731  31.692347     7.3068      7.165   288.5189 4.2306e+00     5.1409      2.408      3.493    12.0737 0.0000e+00
      2.464      0.033     8.6449     80.426     42.725  31.686685     7.3134      7.166   289.3540 4.1812e+00     5.2043      2.417      3.505    12.0760 0.0000e+00
      2.471      0.039     8.6480     80.416     42.755  31.704526     7.3246      7.167   289.3662 4.1460e+00     5.2337      2.423      3.515    12.0785 0.0000e+00
      2.479      0.044     8.6440     80.367     42.782  31.717733     7.3182      7.169   289.0092 4.0844e+00     5.1883      2.428      3.522    12.0802 0.0000e+00
      2.494      0.045     8.6494     80.302     42.792  31.719493     7.3026      7.170   288.2210 3.9795e+00     5.2015      2.444      3.543    12.0810 0.0000e+00
      2.513      0.044     8.6516     80.266     42.803  31.725788     7.3031      7.171   288.2687 3.8811e+00     5.2572      2.467      3.577    12.0800 0.0000e+00
      2.527      0.041     8.6521     80.229     42.807  31.730411     7.3148      7.173   289.3273 3.8303e+00     5.2813      2.481      3.599    12.0757 0.0000e+00
      2.535      0.038     8.6487     80.189     42.781  31.711958     7.3198      7.175   290.0936 3.8076e+00     5.2873      2.488      3.609    12.0665 0.0000e+00
      2.540      0.033     8.6386     80.156     42.756  31.692983     7.2293      7.176   290.3075 3.7830e+00     5.1592      2.491      3.613    12.0581 0.0000e+00
      2.544      0.030     8.6390     80.084     42.756  31.691301     7.0543      7.177   290.1061 3.7417e+00     4.9963      2.494      3.616    12.0561 0.0000e+00
      2.551      0.029     8.6351     80.044     42.758  31.691622     6.9679      7.178   289.7235 3.6893e+00     4.9914      2.501      3.627    12.0597 0.0000e+00
      2.561      0.031     8.6255     80.066     42.765  31.696859     6.9749      7.180   289.4665 3.6440e+00     5.0316      2.512      3.642    12.0616 0.0000e+00
      2.571      0.034     8.6305     80.021     42.756  31.691185     6.9812      7.183   289.3228 3.6113e+00     5.0049      2.523      3.660    12.0598 0.0000e+00
      2.579      0.038     8.6172     79.944     42.750  31.686458     7.0025      7.184   289.5351 3.5815e+00     4.9421      2.529      3.669    12.0573 0.0000e+00
      2.587      0.040     8.6077     79.926     42.775  31.703145     7.0573      7.185   289.8825 3.5335e+00     4.9550      2.536      3.678    12.0553 0.0000e+00
      2.597      0.040     8.6238     79.896     42.781  31.702626     7.0943      7.186   290.1672 3.4692e+00     5.0245      2.546      3.693    12.0561 0.0000e+00
      2.608      0.040     8.6130     79.809     42.758  31.680173     7.1005      7.187   290.3957 3.3998e+00     4.9961      2.557      3.708    12.0573 0.0000e+00
      2.622      0.041     8.5977     79.727     42.770  31.685420     7.1237      7.187   289.7206 3.3411e+00     4.9189      2.572      3.730    12.0589 0.0000e+00
      2.634      0.041     8.6027     79.670     42.796  31.702628     7.1662      7.187   288.4572 3.3122e+00     4.9116      2.586      3.750    12.0574 0.0000e+00
      2.641      0.040     8.6039     79.624     42.792  31.697910     7.1988      7.188   288.0260 3.2844e+00     4.9758      2.590      3.756    12.0492 0.0000e+00
      2.649      0.040     8.5901     79.592     42.786  31.691813     7.2186      7.190   288.5506 3.2367e+00     5.0465      2.597      3.765    12.0416 0.0000e+00
      2.660      0.040     8.5827     79.572     42.788  31.692340     7.2560      7.190   289.4661 3.1817e+00     5.0829      2.609      3.784    12.0384 0.0000e+00
      2.671      0.041     8.5782     79.592     42.806  31.704290     7.3095      7.189   290.0615 3.1298e+00     5.1087      2.619      3.798    12.0362 0.0000e+00
      2.681      0.041     8.5720     79.646     42.814  31.709424     7.3330      7.189   289.2963 3.0785e+00     5.1194      2.628      3.812    12.0338 0.0000e+00
      2.693      0.038     8.5714     79.697     42.790  31.690970     7.3317      7.190   287.5275 3.0228e+00     5.1784      2.641      3.831    12.0318 0.0000e+00
      2.706      0.032     8.5659     79.736     42.764  31.671477     7.2017      7.191   286.8296 2.9849e+00     5.2751      2.655      3.851    12.0306 0.0000e+00
      2.715      0.026     8.5692     79.759     42.755  31.664055     6.9266      7.191   287.2242 2.9679e+00     5.2638      2.664      3.864    12.0294 0.0000e+00
      2.720      0.021     8.5778     79.772     42.756  31.664669     6.7606      7.192   287.3942 2.9457e+00     5.1774      2.667      3.868    12.0282 0.0000e+00
      2.722      0.016     8.5825     79.796     42.775  31.678907     6.7428      7.193   287.7675 2.9240e+00     5.1537      2.669      3.871    12.0277 0.0000e+00
      2.723      0.015     8.5878     79.834     42.815  31.709320     6.6698      7.194   287.9511 2.9173e+00     5.2165      2.670      3.873    12.0271 0.0000e+00
      2.724      0.018     8.5900     79.841     42.822  31.715190     6.5112      7.196   287.1186 2.9120e+00     5.2880      2.670      3.873    12.0268 0.0000e+00
      2.727      0.024     8.5903     79.813     42.783  31.686449     6.4141      7.197   286.4777 2.8830e+00     5.2660      2.672      3.875    12.0269 0.0000e+00
      2.735      0.032     8.5916     79.791     42.772  31.679014     6.3942      7.198   286.5698 2.8346e+00     5.1902      2.681      3.889    12.0274 0.0000e+00
      2.746      0.040     8.5990     79.776     42.784  31.688734     6.3960      7.200   286.6834 2.7880e+00     5.1571      2.693      3.907    12.0279 0.0000e+00
      2.757      0.047     8.6004     79.767     42.768  31.677096     6.4516      7.202   286.8185 2.7320e+00     5.1387      2.703      3.921    12.0281 0.0000e+00
      2.771      0.052     8.5931     79.760     42.752  31.665175     6.5347      7.204   287.1710 2.6666e+00     5.1384      2.717      3.941    12.0285 0.0000e+00
      2.785      0.055     8.5928     79.740     42.762  31.671465     6.5607      7.205   287.5902 2.6100e+00     5.1534      2.732      3.962    12.0291 0.0000e+00
      2.800      0.057     8.5901     79.718     42.790  31.689711     6.5576      7.206   287.8426 2.5547e+00     5.1493      2.744      3.980    12.0300 0.0000e+00
      2.815      0.058     8.5889     79.704     42.800  31.695469     6.6466      7.207   287.7277 2.5007e+00     5.1915      2.760      4.004    12.0313 0.0000e+00
      2.831      0.057     8.5897     79.698     42.777  31.677648     6.8209      7.208   287.4060 2.4477e+00     5.2540      2.777      4.027    12.0312 0.0000e+00
      2.846      0.056     8.5868     79.688     42.760  31.664546     6.9179      7.208   287.1364 2.3891e+00     5.2216      2.791      4.048    12.0293 0.0000e+00
      2.860      0.053     8.5847     79.670     42.760  31.663932     6.9119      7.209   287.0483 2.3364e+00     5.2101      2.806      4.069    12.0269 0.0000e+00
      2.874      0.049     8.5835     79.653     42.770  31.670229     6.8653      7.210   287.8895 2.2857e+00     5.3532      2.818      4.087    12.0244 0.0000e+00
      2.887      0.044     8.5840     79.650     42.780  31.677234     6.8123      7.211   289.3058 2.2439e+00     5.5176      2.831      4.106    12.0228 0.0000e+00
      2.897      0.040     8.5829     79.657     42.791  31.685194     6.8035      7.213   289.7181 2.2198e+00     5.5239      2.843      4.122    12.0223 0.0000e+00
      2.906      0.038     8.5810     79.670     42.816  31.703024     6.8088      7.214   289.0896 2.1954e+00     5.4289      2.850      4.132    12.0219 0.0000e+00
      2.914      0.036     8.5783     79.700     42.816  31.702504     6.7931      7.215   288.2447 2.1649e+00     5.4287      2.858      4.145    12.0210 0.0000e+00
      2.921      0.035     8.5784     79.740     42.785  31.678908     6.7712      7.218   287.9350 2.1349e+00     5.5213      2.864      4.155    12.0205 0.0000e+00
      2.930      0.035     8.5800     79.764     42.775  31.671478     6.7606      7.220   289.0445 2.1111e+00     5.5582      2.872      4.165    12.0199 0.0000e+00
      2.940      0.036     8.5803     79.765     42.782  31.676110     6.7648      7.220   290.8181 2.0879e+00     5.4992      2.883      4.181    12.0192 0.0000e+00
      2.950      0.037     8.5838     79.769     42.777  31.671479     6.8468      7.220   291.4837 2.0599e+00     5.3885      2.895      4.199    12.0190 0.0000e+00
      2.958      0.037     8.5898     79.788     42.788  31.678919     7.0034      7.220   291.0701 2.0304e+00     5.3126      2.902      4.208    12.0188 0.0000e+00
      2.967      0.036     8.5930     79.801     42.820  31.702629     7.0938      7.221   290.4635 1.9995e+00     5.2981      2.909      4.219    12.0181 0.0000e+00
      2.978      0.033     8.5914     79.795     42.821  31.704398     7.0985      7.221   290.2585 1.9722e+00     5.2472      2.922      4.237    12.0176 0.0000e+00
      2.989      0.028     8.5915     79.780     42.816  31.700305     7.0851      7.220   290.6555 1.9417e+00     5.1753      2.932      4.252    12.0166 0.0000e+00
      2.996      0.023     8.5951     79.770     42.838  31.716575     7.0981      7.220   291.3910 1.9077e+00     5.1473      2.940      4.264    12.0152 0.0000e+00
      3.001      0.017     8.5969     79.764     42.832  31.710808     7.1391      7.220   292.0105 1.8954e+00     5.1810      2.944      4.270    12.0158 0.0000e+00
      3.003      0.011     8.5955     79.763     42.811  31.694009     7.1649      7.221   292.2099 1.9024e+00     5.2418      2.945      4.271    12.0170 0.0000e+00
      3.004      0.007     8.5928     79.765     42.825  31.703775     7.1693      7.222   292.0806 1.9023e+00     5.2330      2.946      4.273    12.0172 0.0000e+00
      3.004      0.004     8.5927     79.762     42.822  31.702007     7.1584      7.224   291.7373 1.8936e+00     5.1439      2.946      4.273    12.0166 0.0000e+00
      3.005      0.002     8.5920     79.767     42.782  31.672633     7.1417      7.226   291.2433 1.8806e+00     5.0174      2.946      4.273    12.0147 0.0000e+00
      3.005      0.002     8.5919     79.794     42.772  31.665816     7.1426      7.229   290.9254 1.8671e+00     4.9674      2.946      4.273    12.0131 0.0000e+00
      3.005      0.004     8.5934     79.820     42.794  31.683023     7.1525      7.231   291.0772 1.8629e+00     5.0180      2.947      4.274    12.0127 0.0000e+00
      3.005      0.008     8.5921     79.832     42.804  31.690369     7.0940      7.233   291.1863 1.8709e+00     5.0143      2.947      4.274    12.0131 0.0000e+00
      3.006      0.011     8.5914     79.848     42.805  31.691192     6.9684      7.235   291.2120 1.8675e+00     4.9564      2.948      4.275    12.0141 0.0000e+00
      3.009      0.015     8.5955     79.856     42.809  31.692979     6.9071      7.237   291.4737 1.8290e+00     4.9672      2.949      4.278    12.0148 0.0000e+00
      3.016      0.017     8.5998     79.853     42.835  31.711964     6.9191      7.237   290.9096 1.7896e+00     5.0427      2.958      4.290    12.0150 0.0000e+00
      3.023      0.019     8.5982     79.878     42.859  31.730419     6.9131      7.238   289.6388 1.7792e+00     5.0827      2.966      4.302    12.0153 0.0000e+00
      3.027      0.022     8.6015     79.907     42.850  31.725804     6.8767      7.240   289.1871 1.7724e+00     5.0412      2.968      4.305    12.0155 0.0000e+00
      3.032      0.025     8.6039     79.904     42.840  31.719612     6.8540      7.241   289.2337 1.7542e+00     4.9856      2.973      4.311    12.0136 0.0000e+00
      3.037      0.029     8.6000     79.898     42.836  31.718998     6.8637      7.243   289.5134 1.7408e+00     4.9907      2.978      4.319    12.0127 0.0000e+00
      3.043      0.034     8.6040     79.899     42.832  31.718374     6.9025      7.244   290.1604 1.7188e+00     5.0000      2.983      4.326    12.0145 0.0000e+00
      3.053      0.039     8.6102     79.883     42.821  31.712067     6.9569      7.245   289.8299 1.6775e+00     4.9959      2.994      4.340    12.0164 0.0000e+00
      3.066      0.042     8.6062     79.878     42.811  31.706186     6.9719      7.245   288.5281 1.6455e+00     5.0095      3.008      4.362    12.0179 0.0000e+00
      3.080      0.043     8.6041     79.898     42.817  31.710705     6.9507      7.245   287.8421 1.6240e+00     4.9935      3.021      4.381    12.0208 0.0000e+00
      3.093      0.042     8.6072     79.896     42.809  31.703275     6.9501      7.245   288.0742 1.5975e+00     4.9394      3.032      4.398    12.0238 0.0000e+00
      3.104      0.039     8.6021     79.879     42.779  31.679782     6.9898      7.245   288.6673 1.5734e+00     4.9364      3.046      4.417    12.0258 0.0000e+00
      3.111      0.036     8.5995     79.868     42.779  31.680406     7.0386      7.245   288.9909 1.5596e+00     5.0257      3.053      4.428    12.0276 0.0000e+00
      3.117      0.035     8.6064     79.860     42.818  31.710819     7.0571      7.246   288.8031 1.5394e+00     5.0965      3.055      4.432    12.0280 0.0000e+00
      3.125      0.036     8.6050     79.868     42.842  31.730313     7.0644      7.248   288.3751 1.5080e+00     5.1434      3.063      4.443    12.0265 0.0000e+00
      3.135      0.038     8.6015     79.853     42.837  31.725794     7.0941      7.248   288.0323 1.4863e+00     5.2852      3.075      4.461    12.0238 0.0000e+00
      3.144      0.043     8.6029     79.807     42.832  31.719610     7.1408      7.250   287.9284 1.4713e+00     5.4443      3.083      4.471    12.0241 0.0000e+00
      3.155      0.047     8.5977     79.797     42.835  31.718987     7.1626      7.251   287.9790 1.4406e+00     5.4621      3.092      4.483    12.0276 0.0000e+00
      3.169      0.049     8.6019     79.804     42.837  31.718250     7.1501      7.251   288.0423 1.3968e+00     5.4320      3.109      4.509    12.0294 0.0000e+00
      3.184      0.049     8.6025     79.796     42.829  31.710696     7.1391      7.251   288.3491 1.3683e+00     5.3882      3.124      4.531    12.0287 0.0000e+00
      3.197      0.048     8.5911     79.797     42.804  31.691087     7.1469      7.252   288.8493 1.3464e+00     5.3081      3.136      4.546    12.0252 0.0000e+00
      3.212      0.047     8.5942     79.811     42.778  31.671479     7.1607      7.253   288.8416 1.3246e+00     5.2489      3.151      4.570    12.0207 0.0000e+00
      3.223      0.044     8.5976     79.813     42.768  31.663935     7.1562      7.253   288.5144 1.3178e+00     5.1850      3.163      4.588    12.0181 0.0000e+00
      3.230      0.042     8.5943     79.801     42.768  31.663310     7.1090      7.254   288.2479 1.2998e+00     5.1842      3.165      4.591    12.0171 0.0000e+00
      3.239      0.041     8.5947     79.789     42.769  31.663924     7.0390      7.254   288.1151 1.2626e+00     5.2400      3.174      4.604    12.0161 0.0000e+00
      3.252      0.040     8.5981     79.779     42.779  31.671364     7.0090      7.255   288.6291 1.2392e+00     5.2441      3.190      4.626    12.0151 0.0000e+00
      3.263      0.040     8.5985     79.778     42.803  31.689820     7.0139      7.256   289.4731 1.2269e+00     5.2005      3.201      4.643    12.0148 0.0000e+00
      3.273      0.040     8.5959     79.792     42.812  31.696751     6.9980      7.257   289.8012 1.2096e+00     5.1560      3.210      4.657    12.0145 0.0000e+00
      3.282      0.039     8.5954     79.824     42.807  31.691731     6.9747      7.258   289.7574 1.1961e+00     5.1854      3.220      4.670    12.0142 0.0000e+00
      3.291      0.039     8.5934     79.862     42.810  31.692565     6.9737      7.260   289.4596 1.1858e+00     5.2820      3.226      4.680    12.0140 0.0000e+00
      3.301      0.039     8.5935     79.897     42.831  31.706831     6.9688      7.260   289.0406 1.1703e+00     5.2988      3.236      4.693    12.0149 0.0000e+00
      3.312      0.040     8.5942     79.927     42.872  31.737340     6.9573      7.261   289.2510 1.1463e+00     5.2188      3.249      4.712    12.0159 0.0000e+00
      3.322      0.040     8.5981     79.932     42.882  31.744250     6.9427      7.264   289.9379 1.1262e+00     5.2365      3.258      4.726    12.0142 0.0000e+00
      3.332      0.039     8.6046     79.930     42.857  31.726940     6.9258      7.267   290.2913 1.1047e+00     5.4104      3.267      4.738    12.0119 0.0000e+00
      3.344      0.037     8.6060     79.949     42.842  31.718365     6.9269      7.268   290.2546 1.0714e+00     5.5446      3.280      4.757    12.0112 0.0000e+00
      3.355      0.034     8.6124     79.945     42.821  31.704013     6.9238      7.269   290.0963 1.0539e+00     5.5267      3.291      4.773    12.0112 0.0000e+00
      3.363      0.032     8.6120     79.918     42.787  31.680293     6.8876      7.270   289.9256 1.0570e+00     5.4675      3.298      4.783    12.0113 0.0000e+00
      3.368      0.029     8.6076     79.909     42.793  31.685321     6.8475      7.271   289.8254 1.0590e+00     5.4445      3.303      4.791    12.0125 0.0000e+00
      3.374      0.027     8.6142     79.907     42.815  31.701375     6.8469      7.274   289.8318 1.0541e+00     5.4528      3.309      4.799    12.0151 0.0000e+00
      3.382      0.026     8.6128     79.889     42.792  31.684084     6.8635      7.275   289.9164 1.0476e+00     5.5001      3.316      4.810    12.0173 0.0000e+00
      3.388      0.025     8.6063     79.866     42.772  31.666567     6.8566      7.275   289.9016 1.0403e+00     5.4356      3.323      4.819    12.0183 0.0000e+00
      3.394      0.024     8.6069     79.848     42.792  31.679887     6.8381      7.276   289.7392 1.0307e+00     5.2526      3.327      4.826    12.0187 0.0000e+00
      3.402      0.024     8.6079     79.837     42.846  31.718262     6.8403      7.277   289.5882 1.0170e+00     5.2015      3.337      4.840    12.0193 0.0000e+00
      3.409      0.024     8.6050     79.844     42.891  31.749915     6.8663      7.278   289.4521 1.0000e+00     5.2611      3.345      4.851    12.0184 0.0000e+00
      3.413      0.025     8.6027     79.857     42.888  31.745405     6.9203      7.279   289.3837 9.8541e-01     5.3242      3.347      4.854    12.0153 0.0000e+00
      3.417      0.026     8.6020     79.868     42.867  31.727169     6.9846      7.280   289.4495 9.8121e-01     5.3833      3.349      4.858    12.0126 0.0000e+00
      3.423      0.028     8.5997     79.901     42.859  31.719735     7.0118      7.282   289.4736 9.8394e-01     5.3955      3.356      4.868    12.0119 0.0000e+00
      3.432      0.031     8.6011     79.950     42.860  31.718960     7.0242      7.282   289.4172 9.7530e-01     5.4037      3.367      4.883    12.0111 0.0000e+00
      3.441      0.033     8.6049     79.988     42.858  31.717807     7.0516      7.283   289.3701 9.5748e-01     5.3452      3.375      4.893    12.0070 0.0000e+00
      3.450      0.033     8.6042     80.020     42.840  31.705791     7.0842      7.284   289.3338 9.3532e-01     5.2015      3.382      4.905    12.0031 0.0000e+00
      3.460      0.032     8.6087     80.045     42.832  31.700547     7.1115      7.285   289.3232 9.0335e-01     5.1352      3.395      4.923    12.0015 0.0000e+00
      3.469      0.029     8.6169     80.065     42.856  31.717849     7.1239      7.285   289.3274 8.8694e-01     5.1242      3.403      4.934    11.9993 0.0000e+00
      3.475      0.027     8.6190     80.133     42.866  31.724665     7.1248      7.286   289.2980 8.9528e-01     5.1353      3.408      4.941    11.9999 0.0000e+00
      3.481      0.025     8.6228     80.306     42.859  31.719522     7.0807      7.287   289.2260 8.9350e-01     5.2018      3.414      4.951    12.0027 0.0000e+00
      3.486      0.022     8.6251     80.437     42.858  31.719106     6.9980      7.287   289.1451 8.8069e-01     5.3133      3.420      4.960    12.0032 0.0000e+00
      3.491      0.020     8.6268     80.407     42.857  31.719636     6.9663      7.288   289.0945 8.7284e-01     5.4596      3.423      4.964    12.0021 0.0000e+00
      3.496      0.018     8.6276     80.421     42.866  31.725922     6.9715      7.291   289.1304 8.6698e-01     5.5352      3.427      4.971    12.0015 0.0000e+00
      3.502      0.017     8.6532     80.536     42.876  31.731680     6.9448      7.293   289.3207 8.6251e-01     5.5107      3.436      4.984    12.0013 0.0000e+00
      3.506      0.018     8.6815     80.578     42.869  31.725809     6.8928      7.292   289.5026 8.5481e-01     5.4704      3.440      4.989    12.0016 0.0000e+00
      3.507      0.019     8.6579     80.534     42.857  31.718378     6.8504      7.292   289.5241 8.4663e-01     5.4232      3.439      4.988    12.0036 0.0000e+00
      3.510      0.021     8.6572     80.444     42.834  31.705275     6.8407      7.294   289.4083 8.3716e-01     5.4184      3.440      4.990    12.0041 0.0000e+00
      3.516      0.024     8.6859     80.330     42.816  31.694261     6.8504      7.296   289.2200 8.2504e-01     5.4811      3.446      4.998    12.0010 0.0000e+00
      3.525      0.028     8.6856     80.269     42.836  31.712081     6.8598      7.298   289.1408 8.1985e-01     5.4983      3.457      5.014    11.9984 0.0000e+00
      3.533      0.034     8.6784     80.239     42.856  31.730430     6.8619      7.299   289.2244 8.1592e-01     5.4204      3.467      5.028    12.0011 0.0000e+00
      3.540      0.041     8.6706     80.193     42.846  31.725808     6.8514      7.300   289.3707 8.0556e-01     5.3595      3.471      5.035    12.0073 0.0000e+00
      3.550      0.046     8.6497     80.169     42.840  31.719635     6.8324      7.300   289.4477 7.9506e-01     5.4109      3.480      5.047    12.0091 0.0000e+00
      3.563      0.051     8.6462     80.190     42.847  31.719230     6.8161      7.301   289.4672 7.8197e-01     5.4954      3.494      5.066    12.0105 0.0000e+00
      3.578      0.056     8.6458     80.226     42.859  31.720895     6.8034      7.302   289.5206 7.5744e-01     5.4934      3.508      5.088    12.0169 0.0000e+00
      3.595      0.058     8.6347     80.259     42.896  31.739766     6.7959      7.303   289.2331 7.2715e-01     5.4200      3.525      5.113    12.0231 0.0000e+00
      3.613      0.056     8.6332     80.342     42.928  31.757068     6.8502      7.303   288.6576 6.9929e-01     5.3264      3.543      5.138    12.0207 0.0000e+00
      3.630      0.053     8.6369     80.450     42.909  31.739767     6.9687      7.303   288.4990 6.8006e-01     5.2489      3.561      5.165    12.0119 0.0000e+00
      3.643      0.049     8.6473     80.565     42.887  31.720898     7.0470      7.304   288.6923 6.7041e-01     5.2348      3.575      5.184    12.0040 0.0000e+00
      3.650      0.045     8.6453     80.723     42.890  31.719234     7.0476      7.306   288.9299 6.6033e-01     5.2243      3.579      5.191    11.9923 0.0000e+00
      3.658      0.044     8.6604     80.910     42.895  31.719651     7.0175      7.307   289.1345 6.4602e-01     5.1900      3.586      5.201    11.9836 0.0000e+00
      3.670      0.045     8.6739     81.101     42.908  31.725928     6.9731      7.307   288.7566 6.3886e-01     5.2309      3.600      5.221    11.9819 0.0000e+00
      3.681      0.049     8.6820     81.274     42.921  31.731694     6.9272      7.307   287.8889 6.3566e-01     5.3767      3.610      5.236    11.9795 0.0000e+00
      3.693      0.054     8.7030     81.414     42.916  31.725928     6.9212      7.307   287.5050 6.1937e-01     5.5179      3.619      5.248    11.9754 0.0000e+00
      3.709      0.056     8.7235     81.522     42.908  31.719641     6.9256      7.308   287.7288 6.0230e-01     5.5376      3.638      5.277    11.9710 0.0000e+00
      3.727      0.056     8.7474     81.610     42.907  31.719121     6.9378      7.308   288.0140 5.9752e-01     5.5470      3.656      5.303    11.9667 0.0000e+00
      3.742      0.053     8.7660     81.655     42.908  31.719642     6.9942      7.308   288.1135 5.8346e-01     5.6662      3.669      5.321    11.9622 0.0000e+00
      3.758      0.048     8.7834     81.663     42.917  31.725939     7.0497      7.308   287.9851 5.4703e-01     5.7491      3.687      5.348    11.9595 0.0000e+00
      3.770      0.044     8.7920     81.684     42.925  31.731810     7.0684      7.308   287.5805 5.1964e-01     5.7626      3.700      5.367    11.9595 0.0000e+00
      3.777      0.042     8.8042     81.735     42.919  31.727187     7.0030      7.308   287.1800 5.2642e-01     5.7607      3.702      5.370    11.9597 0.0000e+00
      3.783      0.042     8.8096     81.809     42.927  31.733484     6.8757      7.309   287.0137 5.3886e-01     5.7607      3.708      5.378    11.9595 0.0000e+00
      3.792      0.044     8.8064     81.888     42.943  31.744509     6.8108      7.309   287.0327 5.3074e-01     5.7976      3.719      5.394    11.9595 0.0000e+00
      3.803      0.046     8.8094     81.958     42.928  31.733599     6.8091      7.309   287.1514 5.1368e-01     5.7623      3.728      5.408    11.9587 0.0000e+00
      3.818      0.046     8.8146     82.016     42.921  31.728457     6.8391      7.310   287.2436 4.9894e-01     5.6074      3.742      5.428    11.9586 0.0000e+00
      3.836      0.043     8.8238     82.067     42.943  31.745776     6.8904      7.311   287.2873 4.8674e-01     5.4620      3.764      5.459    11.9594 0.0000e+00
      3.850      0.038     8.8327     82.107     42.953  31.752687     6.9047      7.312   287.3363 4.7174e-01     5.4380      3.779      5.480    11.9585 0.0000e+00
      3.856      0.032     8.8407     82.126     42.948  31.748584     6.8954      7.312   287.4057 4.5497e-01     5.4882      3.782      5.486    11.9580 0.0000e+00
      3.860      0.027     8.8461     82.125     42.964  31.759597     6.8200      7.313   287.2667 4.5576e-01     5.4888      3.784      5.489    11.9589 0.0000e+00
      3.863      0.024     8.8517     82.117     42.964  31.758963     6.6586      7.313   287.0312 4.6496e-01     5.4449      3.787      5.493    11.9591 0.0000e+00
      3.867      0.024     8.8567     82.100     42.940  31.740925     6.5671      7.313   287.5705 4.5878e-01     5.4365      3.792      5.499    11.9593 0.0000e+00
      3.873      0.025     8.8592     82.083     42.929  31.731811     6.5622      7.313   288.6250 4.5363e-01     5.4552      3.799      5.508    11.9588 0.0000e+00
      3.882      0.027     8.8578     82.066     42.902  31.712213     6.5586      7.314   288.9400 4.5594e-01     5.4660      3.806      5.521    11.9579 0.0000e+00
      3.891      0.028     8.8579     82.032     42.877  31.694279     6.5316      7.315   288.7977 4.4529e-01     5.4647      3.817      5.536    11.9573 0.0000e+00
      3.898      0.030     8.8558     81.993     42.891  31.705293     6.4854      7.315   288.5391 4.3178e-01     5.4395      3.825      5.547    11.9565 0.0000e+00
      3.903      0.030     8.8531     81.943     42.909  31.718498     6.4662      7.316   288.0509 4.2664e-01     5.4348      3.827      5.551    11.9558 0.0000e+00
      3.910      0.029     8.8540     81.881     42.921  31.727073     6.4653      7.317   288.4011 4.1299e-01     5.4760      3.833      5.559    11.9558 0.0000e+00
      3.919      0.028     8.8478     81.846     42.946  31.745527     6.4919      7.320   289.5900 4.0225e-01     5.4589      3.843      5.574    11.9564 0.0000e+00
      3.929      0.028     8.8442     81.843     42.954  31.751303     6.5460      7.323   290.2079 3.9787e-01     5.3301      3.854      5.590    11.9571 0.0000e+00
      3.936      0.028     8.8399     81.848     42.929  31.733483     6.5540      7.325   290.1069 3.9313e-01     5.1828      3.860      5.598    11.9578 0.0000e+00
      3.941      0.028     8.8300     81.852     42.910  31.720382     6.5548      7.325   289.8314 3.9550e-01     5.1478      3.864      5.603    11.9575 0.0000e+00
      3.947      0.029     8.8266     81.847     42.908  31.719767     6.6307      7.325   289.7174 3.8893e-01     5.2817      3.871      5.614    11.9566 0.0000e+00
      3.954      0.031     8.8282     81.851     42.916  31.726054     6.7396      7.327   289.8461 3.8023e-01     5.4702      3.878      5.625    11.9568 0.0000e+00
      3.962      0.034     8.8280     81.878     42.925  31.732955     6.7973      7.329   290.0115 3.8635e-01     5.5132      3.884      5.633    11.9573 0.0000e+00
      3.972      0.035     8.8295     81.903     42.933  31.739770     6.8042      7.329   290.4266 3.8827e-01     5.4262      3.895      5.648    11.9582 0.0000e+00
      3.983      0.035     8.8276     81.902     42.938  31.745018     6.8066      7.330   291.1660 3.7758e-01     5.4092      3.906      5.664    11.9593 0.0000e+00
      3.993      0.036     8.8266     81.893     42.921  31.732964     6.8178      7.331   291.7239 3.7448e-01     5.4778      3.916      5.680    11.9598 0.0000e+00
      4.002      0.038     8.8311     81.889     42.904  31.720900     6.8149      7.333   291.9224 3.7867e-01     5.5047      3.926      5.694    11.9600 0.0000e+00
      4.008      0.040     8.8352     81.889     42.913  31.726033     6.7969      7.334   291.1576 3.7746e-01     5.4612      3.931      5.701    11.9618 0.0000e+00
      4.015      0.041     8.8330     81.901     42.924  31.731592     6.8245      7.334   289.9617 3.7079e-01     5.3956      3.935      5.707    11.9631 0.0000e+00
      4.028      0.042     8.8312     81.913     42.918  31.724663     6.9073      7.334   290.0248 3.5379e-01     5.3949      3.948      5.727    11.9634 0.0000e+00
      4.044      0.042     8.8319     81.923     42.894  31.705698     6.9657      7.335   290.5443 3.4235e-01     5.4539      3.969      5.755    11.9644 0.0000e+00
      4.056      0.041     8.8300     81.928     42.879  31.692604     6.9731      7.335   290.9946 3.4829e-01     5.4589      3.980      5.772    11.9627 0.0000e+00
      4.065      0.036     8.8345     81.916     42.881  31.693219     6.9554      7.334   291.5973 3.4797e-01     5.4211      3.984      5.778    11.9585 0.0000e+00
      4.074      0.029     8.8356     81.885     42.906  31.713136     6.8754      7.334   290.7773 3.3622e-01     5.4065      3.995      5.795    11.9560 0.0000e+00
      4.082      0.022     8.8366     81.854     42.943  31.743106     6.7549      7.334   288.8227 3.3562e-01     5.4529      4.006      5.811    11.9549 0.0000e+00
      4.086      0.017     8.8387     81.833     42.933  31.738387     6.7063      7.336   288.0973 3.4535e-01     5.5389      4.008      5.813    11.9536 0.0000e+00
      4.087      0.016     8.8375     81.812     42.904  31.719527     6.6963      7.337   288.4593 3.4428e-01     5.5240      4.008      5.813    11.9523 0.0000e+00
      4.087      0.017     8.8334     81.789     42.883  31.705385     6.6159      7.337   289.0705 3.3733e-01     5.4781      4.008      5.813    11.9530 0.0000e+00
      4.089      0.019     8.8281     81.757     42.866  31.694277     6.5089      7.337   289.9810 3.2566e-01     5.5307      4.008      5.814    11.9563 0.0000e+00
      4.096      0.021     8.8267     81.726     42.887  31.712098     6.4678      7.338   289.7454 3.1841e-01     5.5447      4.014      5.823    11.9601 0.0000e+00
      4.107      0.022     8.8230     81.721     42.911  31.730551     6.4686      7.339   288.2860 3.2862e-01     5.5098      4.029      5.843    11.9628 0.0000e+00
      4.116      0.022     8.8210     81.729     42.908  31.727072     6.4346      7.340   287.5649 3.2443e-01     5.4847      4.039      5.859    11.9641 0.0000e+00
      4.121      0.020     8.8173     81.737     42.920  31.733472     6.3738      7.341   287.6520 3.0479e-01     5.4802      4.042      5.862    11.9663 0.0000e+00
      4.123      0.017     8.8107     81.742     42.937  31.744487     6.3573      7.343   287.8760 3.1021e-01     5.5247      4.044      5.864    11.9695 0.0000e+00
      4.125      0.014     8.8117     81.727     42.923  31.733370     6.3682      7.345   288.2082 3.2316e-01     5.5092      4.044      5.866    11.9703 0.0000e+00
      4.128      0.014     8.8136     81.713     42.913  31.725931     6.3395      7.346   288.7432 3.1569e-01     5.4300      4.048      5.871    11.9684 0.0000e+00
      4.132      0.016     8.8139     81.712     42.902  31.717981     6.2761      7.348   289.2683 3.0977e-01     5.3869      4.053      5.878    11.9654 0.0000e+00
      4.136      0.020     8.8176     81.695     42.877  31.700689     6.2340      7.350   289.2228 3.1084e-01     5.3982      4.056      5.883    11.9628 0.0000e+00
      4.140      0.022     8.8140     81.669     42.885  31.707170     6.2473      7.351   289.0542 3.1343e-01     5.4632      4.059      5.888    11.9613 0.0000e+00
      4.147      0.022     8.8113     81.664     42.919  31.732912     6.3703      7.352   288.7779 3.1325e-01     5.5588      4.066      5.898    11.9619 0.0000e+00
      4.156      0.023     8.8140     81.693     42.951  31.758174     6.5645      7.354   288.2047 3.0255e-01     5.6314      4.077      5.913    11.9633 0.0000e+00
      4.163      0.023     8.8110     81.746     42.951  31.758854     6.6723      7.356   288.0608 2.9307e-01     5.6926      4.084      5.923    11.9640 0.0000e+00
      4.166      0.022     8.8065     81.791     42.928  31.741143     6.7004      7.356   289.3617 2.8704e-01     5.7519      4.085      5.925    11.9643 0.0000e+00
      4.170      0.022     8.8058     81.815     42.922  31.734338     6.7045      7.357   291.2005 2.8104e-01     5.7341      4.088      5.929    11.9651 0.0000e+00
      4.177      0.023     8.8082     81.836     42.932  31.740021     6.7127      7.359   291.3641 2.8494e-01     5.6138      4.096      5.941    11.9671 0.0000e+00
      4.183      0.026     8.8156     81.843     42.942  31.746413     6.7577      7.360   290.8238 2.9359e-01     5.4919      4.103      5.950    11.9683 0.0000e+00
      4.188      0.030     8.8220     81.810     42.946  31.748180     6.7994      7.361   290.3456 2.8824e-01     5.4901      4.106      5.956    11.9669 0.0000e+00
      4.195      0.032     8.8226     81.741     42.966  31.761377     6.8178      7.362   289.6261 2.7563e-01     5.5242      4.112      5.964    11.9643 0.0000e+00
      4.206      0.032     8.8263     81.670     42.991  31.779103     6.8056      7.363   290.7292 2.7528e-01     5.4603      4.124      5.981    11.9626 0.0000e+00
      4.217      0.032     8.8289     81.614     42.982  31.772193     6.7684      7.364   293.2716 2.7539e-01     5.3318      4.138      6.002    11.9611 0.0000e+00
      4.225      0.031     8.8252     81.576     42.940  31.741261     6.7414      7.366   294.2959 2.7104e-01     5.2350      4.145      6.012    11.9597 0.0000e+00
      4.231      0.028     8.8163     81.564     42.915  31.722296     6.7302      7.367   294.0794 2.6569e-01     5.2456      4.148      6.016    11.9587 0.0000e+00
      4.238      0.024     8.8081     81.576     42.929  31.733215     6.6411      7.367   293.4941 2.6030e-01     5.2891      4.157      6.028    11.9578 0.0000e+00
      4.245      0.022     8.8029     81.600     42.947  31.746403     6.4550      7.367   292.5539 2.5361e-01     5.2488      4.164      6.040    11.9571 0.0000e+00
      4.249      0.022     8.7980     81.634     42.958  31.754872     6.3355      7.368   292.6057 2.3446e-01     5.1683      4.166      6.043    11.9563 0.0000e+00
      4.251      0.025     8.7967     81.671     42.982  31.772172     6.3195      7.370   293.6894 2.2296e-01     5.1366      4.168      6.046    11.9564 0.0000e+00
      4.255      0.027     8.7989     81.708     42.973  31.765261     6.3286      7.372   294.3860 2.3582e-01     5.2406      4.172      6.051    11.9571 0.0000e+00
      4.263      0.029     8.8011     81.762     42.932  31.734753     6.3459      7.373   294.4904 2.4560e-01     5.4016      4.179      6.060    11.9575 0.0000e+00
      4.275      0.031     8.8049     81.824     42.912  31.720497     6.3535      7.373   294.3492 2.3786e-01     5.4429      4.192      6.079    11.9575 0.0000e+00
      4.287      0.032     8.8096     81.859     42.910  31.719768     6.3448      7.373   294.0557 2.3320e-01     5.4328      4.207      6.101    11.9573 0.0000e+00
      4.295      0.032     8.8125     81.880     42.918  31.725942     6.3916      7.374   293.4361 2.2660e-01     5.4500      4.213      6.110    11.9571 0.0000e+00
      4.301      0.031     8.8177     81.917     42.927  31.731698     6.5034      7.374   292.7076 2.1054e-01     5.4799      4.216      6.115    11.9571 0.0000e+00
      4.307      0.029     8.8280     81.960     42.920  31.725930     6.5720      7.375   292.5614 2.0605e-01     5.4871      4.225      6.126    11.9574 0.0000e+00
      4.314      0.029     8.8301     81.989     42.913  31.719645     6.5720      7.376   292.9584 2.1489e-01     5.4348      4.231      6.135    11.9579 0.0000e+00
      4.322      0.030     8.8301     81.990     42.913  31.719135     6.5615      7.376   293.5512 2.1840e-01     5.3937      4.238      6.147    11.9584 0.0000e+00
      4.330      0.031     8.8358     81.978     42.913  31.719760     6.6368      7.377   293.7917 2.1263e-01     5.4339      4.247      6.159    11.9579 0.0000e+00
      4.337      0.031     8.8406     81.981     42.923  31.727200     6.7838      7.378   292.5971 1.9935e-01     5.5119      4.253      6.168    11.9564 0.0000e+00
      4.345      0.030     8.8456     82.001     42.948  31.745654     6.8572      7.378   290.5499 1.9121e-01     5.5168      4.261      6.181    11.9550 0.0000e+00
      4.354      0.028     8.8446     82.027     42.957  31.752565     6.8575      7.379   289.7746 2.0509e-01     5.4591      4.270      6.194    11.9546 0.0000e+00
      4.362      0.026     8.8419     82.043     42.951  31.747327     6.8292      7.380   290.3642 2.2055e-01     5.5313      4.277      6.203    11.9548 0.0000e+00
      4.368      0.026     8.8425     82.039     42.949  31.745758     6.7822      7.381   291.2262 2.1323e-01     5.7062      4.285      6.214    11.9553 0.0000e+00
      4.373      0.027     8.8449     82.019     42.934  31.733600     6.7545      7.381   291.5935 1.9642e-01     5.7294      4.288      6.220    11.9554 0.0000e+00
      4.377      0.029     8.8482     81.983     42.926  31.727200     6.7527      7.382   290.7615 1.9062e-01     5.6412      4.292      6.225    11.9553 0.0000e+00
      4.384      0.030     8.8510     81.943     42.934  31.731823     6.7690      7.383   289.3392 1.8532e-01     5.6652      4.298      6.234    11.9550 0.0000e+00
      4.395      0.032     8.8495     81.913     42.927  31.726056     6.7926      7.384   288.7662 1.7451e-01     5.8138      4.308      6.249    11.9544 0.0000e+00
      4.407      0.034     8.8483     81.889     42.921  31.720904     6.8137      7.385   288.8232 1.7390e-01     5.9355      4.324      6.271    11.9538 0.0000e+00
      4.415      0.034     8.8442     81.894     42.938  31.732966     6.8157      7.385   289.1682 1.8466e-01     5.9400      4.331      6.282    11.9526 0.0000e+00
      4.421      0.032     8.8385     81.953     42.955  31.745020     6.7430      7.385   289.9259 1.8929e-01     5.7667      4.334      6.285    11.9512 0.0000e+00
      4.431      0.030     8.8371     82.008     42.948  31.739773     6.6172      7.386   290.0687 1.8637e-01     5.5136      4.346      6.302    11.9504 0.0000e+00
      4.440      0.030     8.8338     82.049     42.939  31.732958     6.5595      7.387   289.4327 1.8615e-01     5.4413      4.357      6.318    11.9495 0.0000e+00
      4.444      0.032     8.8308     82.110     42.930  31.726058     6.5698      7.388   288.9463 1.7907e-01     5.5077      4.358      6.320    11.9488 0.0000e+00
      4.449      0.036     8.8427     82.174     42.921  31.719780     6.5168      7.388   288.8344 1.6436e-01     5.5657      4.361      6.325    11.9487 0.0000e+00
      4.457      0.037     8.8489     82.227     42.922  31.720499     6.4015      7.388   288.8544 1.5866e-01     5.6300      4.370      6.338    11.9492 0.0000e+00
      4.470      0.036     8.8488     82.229     42.942  31.734745     6.3492      7.390   288.9294 1.6868e-01     5.7037      4.382      6.356    11.9490 0.0000e+00
      4.485      0.034     8.8599     82.172     42.983  31.765149     6.3505      7.391   289.4833 1.8000e-01     5.7737      4.400      6.383    11.9486 0.0000e+00
      4.496      0.031     8.8642     82.131     42.990  31.770916     6.3344      7.391   290.3029 1.7395e-01     5.7591      4.412      6.401    11.9485 0.0000e+00
      4.501      0.026     8.8731     82.139     42.949  31.741032     6.2205      7.392   290.4935 1.5875e-01     5.6634      4.414      6.402    11.9485 0.0000e+00
      4.503      0.022     8.8750     82.157     42.922  31.721019     6.0393      7.393   290.4112 1.5243e-01     5.6077      4.415      6.404    11.9484 0.0000e+00
      4.506      0.021     8.8634     82.162     42.920  31.719261     5.9587      7.393   290.2538 1.5435e-01     5.6327      4.418      6.409    11.9483 0.0000e+00
      4.510      0.023     8.8579     82.173     42.920  31.719772     5.9614      7.394   289.8815 1.5411e-01     5.7262      4.420      6.411    11.9486 0.0000e+00
      4.516      0.028     8.8613     82.212     42.930  31.727202     5.9462      7.396   290.4696 1.4991e-01     5.7476      4.428      6.421    11.9488 0.0000e+00
      4.526      0.032     8.8645     82.267     42.955  31.745655     5.9079      7.397   291.9445 1.4598e-01     5.6181      4.439      6.439    11.9489 0.0000e+00
      4.535      0.034     8.8631     82.292     42.965  31.752566     5.8822      7.397   292.5709 1.4083e-01     5.4922      4.447      6.450    11.9491 0.0000e+00
      4.544      0.035     8.8640     82.273     42.958  31.747329     5.8930      7.397   292.4508 1.3762e-01     5.4900      4.456      6.462    11.9492 0.0000e+00
      4.555      0.034     8.8677     82.249     42.956  31.745769     6.0305      7.398   292.1271 1.4374e-01     5.6252      4.467      6.480    11.9489 0.0000e+00
      4.565      0.033     8.8765     82.229     42.940  31.733716     6.2621      7.399   291.5821 1.4954e-01     5.7956      4.477      6.494    11.9488 0.0000e+00
      4.572      0.032     8.8808     82.217     42.933  31.728470     6.3726      7.399   291.7982 1.4259e-01     5.8756      4.484      6.503    11.9488 0.0000e+00
      4.579      0.033     8.8751     82.229     42.956  31.745781     6.3838      7.399   292.7615 1.3377e-01     5.8760      4.491      6.513    11.9488 0.0000e+00
      4.584      0.035     8.8732     82.251     42.965  31.752702     6.4635      7.400   293.3349 1.3224e-01     5.7997      4.497      6.522    11.9488 0.0000e+00
      4.592      0.036     8.8715     82.250     42.959  31.748702     6.6036      7.402   293.3099 1.3097e-01     5.6013      4.502      6.528    11.9485 0.0000e+00
      4.604      0.037     8.8680     82.225     42.976  31.760859     6.6721      7.402   293.0626 1.2683e-01     5.3909      4.515      6.548    11.9483 0.0000e+00
      4.619      0.039     8.8709     82.201     42.993  31.772817     6.6670      7.402   292.9251 1.2527e-01     5.3731      4.533      6.575    11.9483 0.0000e+00
      4.628      0.039     8.8745     82.173     42.984  31.766417     6.6995      7.402   292.7658 1.2612e-01     5.4890      4.540      6.584    11.9487 0.0000e+00
      4.635      0.037     8.8749     82.132     42.957  31.746913     6.7744      7.403   292.4276 1.2550e-01     5.5287      4.543      6.587    11.9490 0.0000e+00
      4.645      0.033     8.8697     82.099     42.930  31.727315     6.8152      7.403   292.4488 1.2588e-01     5.4776      4.555      6.606    11.9490 0.0000e+00
      4.656      0.033     8.8683     82.090     42.920  31.719771     6.8107      7.403   292.8501 1.2777e-01     5.4176      4.569      6.626    11.9490 0.0000e+00
      4.662      0.035     8.8663     82.110     42.919  31.719137     6.7947      7.404   293.1498 1.2772e-01     5.3838      4.572      6.632    11.9491 0.0000e+00
      4.666      0.038     8.8597     82.146     42.920  31.719657     6.7541      7.405   293.3201 1.2583e-01     5.4778      4.574      6.635    11.9492 0.0000e+00
      4.674      0.039     8.8561     82.172     42.928  31.726047     6.6948      7.406   293.0164 1.2548e-01     5.7012      4.581      6.645    11.9491 0.0000e+00
      4.689      0.040     8.8549     82.185     42.938  31.732957     6.6599      7.408   292.4025 1.2573e-01     5.7961      4.598      6.667    11.9492 0.0000e+00
      4.705      0.043     8.8571     82.190     42.947  31.739773     6.6401      7.408   292.2648 1.2462e-01     5.7031      4.617      6.695    11.9491 0.0000e+00
      4.716      0.044     8.8628     82.188     42.954  31.745022     6.6135      7.407   292.3835 1.2382e-01     5.6007      4.627      6.712    11.9491 0.0000e+00
      4.723      0.044     8.8657     82.180     42.938  31.732977     6.5955      7.407   292.6333 1.2381e-01     5.5494      4.630      6.715    11.9492 0.0000e+00
      4.732      0.045     8.8660     82.155     42.922  31.721018     6.5812      7.407   292.9623 1.2383e-01     5.4928      4.640      6.729    11.9493 0.0000e+00
      4.744      0.047     8.8678     82.120     42.931  31.727306     6.5743      7.408   292.4036 1.2381e-01     5.4281      4.653      6.750    11.9494 0.0000e+00
      4.756      0.051     8.8660     82.108     42.956  31.745552     6.6202      7.410   291.2118 1.2381e-01     5.4166      4.663      6.764    11.9492 0.0000e+00
      4.770      0.056     8.8671     82.131     42.964  31.751310     6.7034      7.411   290.7698 1.2382e-01     5.4564      4.676      6.782    11.9492 0.0000e+00
      4.787      0.060     8.8637     82.162     42.940  31.733488     6.7562      7.412   290.9317 1.2380e-01     5.5326      4.695      6.810    11.9490 0.0000e+00
      4.803      0.062     8.8580     82.178     42.922  31.720385     6.7584      7.412   291.3624 1.2375e-01     5.5521      4.710      6.833    11.9488 0.0000e+00
      4.818      0.062     8.8566     82.201     42.921  31.719761     6.7216      7.412   291.9342 1.2375e-01     5.5906      4.725      6.853    11.9486 0.0000e+00
      4.834      0.058     8.8600     82.231     42.929  31.725944     6.6859      7.412   291.7364 1.2374e-01     5.7596      4.741      6.876    11.9485 0.0000e+00
      4.852      0.052     8.8657     82.260     42.937  31.731701     6.6850      7.412   290.8634 1.2374e-01     5.8866      4.758      6.902    11.9484 0.0000e+00
      4.868      0.046     8.8646     82.286     42.930  31.725932     6.6866      7.411   290.2411 1.2378e-01     5.9651      4.777      6.929    11.9483 0.0000e+00
      4.878      0.041     8.8681     82.299     42.921  31.719642     6.5552      7.411   290.1487 1.2374e-01     5.9223      4.786      6.941    11.9483 0.0000e+00
      4.883      0.036     8.8715     82.299     42.920  31.719084     6.3032      7.412   290.3477 1.2367e-01     5.7116      4.787      6.942    11.9485 0.0000e+00
      4.889      0.033     8.8742     82.298     42.920  31.719188     6.1696      7.412   290.5829 1.2370e-01     5.6375      4.793      6.952    11.9485 0.0000e+00
      4.897      0.033     8.8781     82.285     42.923  31.720889     6.1713      7.412   290.8414 1.2379e-01     5.7097      4.803      6.965    11.9485 0.0000e+00
      4.905      0.036     8.8793     82.235     42.948  31.739659     6.1741      7.412   291.2362 1.2384e-01     5.6966      4.809      6.975    11.9483 0.0000e+00
      4.915      0.038     8.8788     82.167     42.970  31.755818     6.1196      7.414   291.4852 1.2383e-01     5.6496      4.819      6.990    11.9482 0.0000e+00
      4.926      0.038     8.8785     82.117     42.930  31.725944     6.0291      7.415   291.3560 1.2384e-01     5.6880      4.831      7.007    11.9483 0.0000e+00
      4.938      0.036     8.8798     82.076     42.889  31.695654     5.9949      7.415   291.1372 1.2389e-01     5.7855      4.842      7.023    11.9482 0.0000e+00
      4.949      0.034     8.8726     82.034     42.904  31.706774     6.0143      7.415   290.9049 1.2388e-01     5.8365      4.855      7.040    11.9481 0.0000e+00
      4.957      0.033     8.8631     82.013     42.940  31.733510     6.0468      7.417   290.8707 1.2382e-01     5.7583      4.864      7.054    11.9482 0.0000e+00
      4.962      0.033     8.8588     82.006     42.983  31.765161     6.0805      7.419   292.0138 1.2377e-01     5.6601      4.866      7.057    11.9481 0.0000e+00
      4.966      0.036     8.8558     82.007     42.993  31.772280     6.0978      7.419   293.6277 1.2379e-01     5.6403      4.869      7.061    11.9480 0.0000e+00
      4.974      0.041     8.8488     82.044     42.971  31.756143     6.1060      7.420   293.9496 1.2381e-01     5.6555      4.877      7.074    11.9480 0.0000e+00
      4.986      0.048     8.8471     82.094     42.977  31.760362     5.9881      7.422   293.6685 1.2379e-01     5.6734      4.890      7.092    11.9479 0.0000e+00
      5.000      0.054     8.8484     82.135     42.976  31.759852     5.7371      7.424   293.3269 1.2379e-01     5.6857      4.901      7.109    11.9478 0.0000e+00
      5.016      0.058     8.8445     82.184     42.963  31.749972     5.6098      7.425   292.8310 1.2380e-01     5.7361      4.918      7.133    11.9475 0.0000e+00
      5.036      0.058     8.8513     82.219     42.987  31.767782     5.6226      7.426   293.9540 1.2376e-01     5.7696      4.940      7.164    11.9473 0.0000e+00
      5.053      0.055     8.8583     82.243     43.011  31.784883     5.8250      7.426   296.2346 1.2373e-01     5.7506      4.958      7.191    11.9475 0.0000e+00
      5.067      0.050     8.8594     82.262     42.987  31.766420     6.2182      7.428   297.1755 1.2374e-01     5.7456      4.971      7.210    11.9478 0.0000e+00
      5.077      0.042     8.8682     82.247     42.945  31.734863     6.4317      7.429   297.2425 1.2376e-01     5.7086      4.978      7.221    11.9475 0.0000e+00
      5.085      0.036     8.8708     82.219     42.925  31.720522     6.4420      7.430   296.9590 1.2379e-01     5.7124      4.985      7.232    11.9469 0.0000e+00
      5.094      0.034     8.8722     82.208     42.924  31.719899     6.4008      7.431   296.1565 1.2383e-01     5.7911      4.998      7.248    11.9467 0.0000e+00
      5.101      0.036     8.8779     82.206     42.934  31.727329     6.3164      7.431   297.0036 1.2384e-01     5.8070      5.004      7.257    11.9464 0.0000e+00
      5.106      0.043     8.8737     82.207     42.961  31.746916     6.2622      7.432   299.5446 1.2381e-01     5.7345      5.005      7.259    11.9461 0.0000e+00
      5.114      0.050     8.8694     82.221     42.987  31.766409     6.2369      7.434   300.8094 1.2378e-01     5.6311      5.013      7.270    11.9460 0.0000e+00
      5.128      0.055     8.8690     82.250     42.995  31.772705     6.2102      7.434   300.5091 1.2377e-01     5.5813      5.028      7.292    11.9461 0.0000e+00
      5.148      0.057     8.8695     82.286     42.977  31.759602     6.1047      7.432   300.1286 1.2376e-01     5.6111      5.046      7.319    11.9461 0.0000e+00
      5.171      0.057     8.8683     82.313     42.944  31.734861     5.9025      7.430   300.0809 1.2374e-01     5.6491      5.072      7.356    11.9460 0.0000e+00
      5.190      0.052     8.8706     82.335     42.934  31.727317     5.7801      7.430   300.0192 1.2379e-01     5.6648      5.095      7.389    11.9462 0.0000e+00
      5.199      0.044     8.8734     82.370     42.940  31.731826     5.7811      7.430   300.3288 1.2380e-01     5.6651      5.099      7.396    11.9463 0.0000e+00
      5.203      0.034     8.8782     82.397     42.932  31.725946     5.9738      7.430   301.5876 1.2373e-01     5.6191      5.100      7.397    11.9464 0.0000e+00
      5.211      0.026     8.8816     82.397     42.923  31.719660     6.3288      7.430   303.5378 1.2371e-01     5.5519      5.110      7.411    11.9467 0.0000e+00
      5.218      0.023     8.8814     82.399     42.922  31.719252     6.5104      7.430   306.0116 1.2382e-01     5.5015      5.119      7.425    11.9468 0.0000e+00
      5.221      0.025     8.8871     82.409     42.925  31.721021     6.5221      7.431   308.3546 1.2392e-01     5.4536      5.121      7.427    11.9466 0.0000e+00
      5.224      0.030     8.8917     82.413     42.953  31.741045     6.6620      7.432   308.2911 1.2389e-01     5.4506      5.121      7.429    11.9465 0.0000e+00
      5.231      0.035     8.8890     82.417     42.994  31.771044     6.9279      7.432   306.5356 1.2384e-01     5.5682      5.127      7.437    11.9467 0.0000e+00
      5.241      0.041     8.8890     82.394     42.989  31.766536     7.0809      7.432   306.8317 1.2383e-01     5.7491      5.139      7.453    11.9469 0.0000e+00
      5.255      0.047     8.8925     82.364     42.967  31.749972     7.0814      7.433   308.8588 1.2382e-01     5.7931      5.153      7.474    11.9467 0.0000e+00
      5.270      0.052     8.8897     82.365     42.982  31.761091     6.9342      7.434   310.4817 1.2375e-01     5.7242      5.168      7.496    11.9461 0.0000e+00
      5.284      0.056     8.8946     82.392     43.000  31.774100     6.6991      7.435   310.2789 1.2370e-01     5.7367      5.183      7.517    11.9455 0.0000e+00
      5.297      0.057     8.8902     82.419     43.009  31.780377     6.5942      7.434   307.0091 1.2370e-01     5.7726      5.195      7.535    11.9448 0.0000e+00
      5.311      0.057     8.8844     82.420     43.000  31.773551     6.5983      7.434   302.8671 1.2370e-01     5.7482      5.207      7.553    11.9442 0.0000e+00
      5.327      0.056     8.8863     82.425     42.975  31.755002     6.6405      7.435   301.2396 1.2375e-01     5.6807      5.223      7.576    11.9439 0.0000e+00
      5.343      0.054     8.8886     82.464     42.963  31.746418     6.7205      7.435   301.0974 1.2382e-01     5.6400      5.240      7.600    11.9434 0.0000e+00
      5.359      0.051     8.8953     82.520     42.944  31.733210     6.7752      7.436   301.4053 1.2379e-01     5.6998      5.256      7.623    11.9431 0.0000e+00
      5.371      0.047     8.8920     82.559     42.928  31.722177     6.8021      7.436   301.9508 1.2370e-01     5.7549      5.268      7.640    11.9430 0.0000e+00
      5.380      0.044     8.8918     82.576     42.952  31.739893     6.7967      7.436   300.2940 1.2372e-01     5.7256      5.275      7.650    11.9434 0.0000e+00
      5.390      0.044     8.8963     82.579     42.975  31.757098     6.6857      7.437   297.1188 1.2377e-01     5.7211      5.286      7.667    11.9435 0.0000e+00
      5.399      0.047     8.9049     82.564     42.953  31.739891     6.5166      7.437   295.3943 1.2370e-01     5.8375      5.296      7.682    11.9438 0.0000e+00
      5.407      0.051     8.9088     82.564     42.929  31.722165     6.4506      7.438   295.0155 1.2364e-01     5.9714      5.299      7.686    11.9446 0.0000e+00
      5.421      0.055     8.9090     82.569     42.944  31.733084     6.4862      7.438   295.1203 1.2369e-01     6.0084      5.313      7.705    11.9450 0.0000e+00
      5.441      0.057     8.9117     82.547     42.961  31.745035     6.6975      7.438   295.6297 1.2375e-01     5.9088      5.338      7.741    11.9449 0.0000e+00
      5.459      0.057     8.9065     82.512     42.954  31.739789     7.0740      7.438   295.8396 1.2379e-01     5.7228      5.356      7.768    11.9447 0.0000e+00
      5.473      0.053     8.9075     82.499     42.944  31.733086     7.2775      7.438   295.5072 1.2374e-01     5.6384      5.367      7.784    11.9444 0.0000e+00
      5.486      0.046     8.9108     82.502     42.937  31.727433     7.2763      7.438   294.9659 1.2369e-01     5.7083      5.380      7.802    11.9439 0.0000e+00
      5.499      0.040     8.9069     82.503     42.947  31.734883     7.1004      7.439   294.5435 1.2371e-01     5.8167      5.394      7.824    11.9439 0.0000e+00
      5.507      0.035     8.9012     82.504     42.981  31.759720     6.7661      7.440   294.2717 1.2371e-01     5.8898      5.402      7.836    11.9441 0.0000e+00
      5.510      0.034     8.9003     82.504     43.001  31.773976     6.5884      7.440   294.0027 1.2371e-01     5.9435      5.403      7.836    11.9441 0.0000e+00
      5.515      0.036     8.9020     82.500     43.010  31.780367     6.5825      7.440   294.4744 1.2379e-01     5.9879      5.407      7.842    11.9441 0.0000e+00
      5.525      0.039     8.9014     82.510     43.001  31.773562     6.6210      7.440   295.5871 1.2380e-01     6.0499      5.419      7.859    11.9437 0.0000e+00
      5.537      0.043     8.9017     82.539     42.976  31.755128     6.6960      7.440   295.8413 1.2377e-01     6.1126      5.430      7.876    11.9434 0.0000e+00
      5.550      0.047     8.9023     82.551     42.966  31.747803     6.7232      7.440   295.3961 1.2376e-01     6.0975      5.440      7.891    11.9431 0.0000e+00
      5.565      0.049     8.9014     82.531     42.967  31.748435     6.7330      7.441   294.8501 1.2376e-01     6.1063      5.458      7.916    11.9427 0.0000e+00
      5.580      0.049     8.9009     82.510     42.987  31.762767     6.8396      7.442   294.2304 1.2381e-01     6.2184      5.475      7.941    11.9425 0.0000e+00
      5.589      0.047     8.9070     82.501     43.030  31.794210     7.0138      7.442   294.7861 1.2386e-01     6.2920      5.480      7.949    11.9424 0.0000e+00
      5.598      0.042     8.9092     82.489     43.053  31.811416     7.0997      7.442   296.3209 1.2383e-01     6.2446      5.487      7.958    11.9423 0.0000e+00
      5.612      0.040     8.9046     82.477     43.012  31.780482     7.0875      7.442   296.8701 1.2379e-01     6.1576      5.505      7.984    11.9422 0.0000e+00
      5.624      0.041     8.9019     82.487     42.953  31.737390     7.0736      7.442   296.3497 1.2383e-01     6.0936      5.519      8.004    11.9417 0.0000e+00
      5.630      0.043     8.9025     82.505     42.948  31.734469     7.0075      7.443   295.6221 1.2388e-01     6.1542      5.521      8.007    11.9414 0.0000e+00
      5.636      0.044     8.9012     82.525     42.963  31.745161     6.8791      7.444   295.2137 1.2388e-01     6.3098      5.523      8.011    11.9412 0.0000e+00
      5.649      0.043     8.8978     82.561     42.956  31.739790     6.8029      7.444   295.7142 1.2385e-01     6.3360      5.539      8.033    11.9409 0.0000e+00
      5.666      0.041     8.9006     82.611     42.947  31.732962     6.7856      7.444   296.7690 1.2383e-01     6.3002      5.559      8.062    11.9412 0.0000e+00
      5.680      0.040     8.9028     82.660     42.938  31.726051     6.7360      7.444   297.2988 1.2381e-01     6.4229      5.573      8.083    11.9417 0.0000e+00
      5.688      0.036     8.9035     82.709     42.929  31.719671     6.6449      7.444   297.3017 1.2381e-01     6.6238      5.579      8.091    11.9418 0.0000e+00
      5.694      0.031     8.9074     82.734     42.928  31.719255     6.5821      7.444   297.2344 1.2379e-01     6.6797      5.583      8.097    11.9418 0.0000e+00
      5.700      0.026     8.9142     82.700     42.930  31.721023     6.5596      7.445   296.9151 1.2374e-01     6.6207      5.590      8.107    11.9417 0.0000e+00
      5.706      0.024     8.9191     82.641     42.957  31.741046     6.5808      7.446   296.6245 1.2371e-01     6.4918      5.595      8.116    11.9418 0.0000e+00
      5.712      0.026     8.9243     82.582     42.998  31.771034     6.6469      7.446   296.8185 1.2373e-01     6.3161      5.601      8.124    11.9419 0.0000e+00
      5.717      0.029     8.9308     82.512     42.992  31.766411     6.7011      7.447   297.1093 1.2378e-01     6.2386      5.607      8.133    11.9421 0.0000e+00
      5.723      0.033     8.9239     82.451     42.968  31.748591     6.7290      7.448   297.2149 1.2374e-01     6.2039      5.612      8.139    11.9422 0.0000e+00
      5.732      0.037     8.9157     82.428     42.964  31.745888     6.9088      7.448   297.2357 1.2368e-01     6.1694      5.621      8.151    11.9422 0.0000e+00
      5.744      0.039     8.9123     82.455     42.948  31.733730     7.2688      7.449   297.1890 1.2373e-01     6.1975      5.634      8.170    11.9422 0.0000e+00
      5.756      0.042     8.9022     82.506     42.942  31.728474     7.4854      7.450   296.7361 1.2379e-01     6.2016      5.644      8.187    11.9422 0.0000e+00
      5.767      0.045     8.8953     82.569     42.965  31.745774     7.5058      7.451   295.9754 1.2377e-01     6.1852      5.656      8.203    11.9419 0.0000e+00
      5.777      0.048     8.8912     82.629     42.974  31.752580     7.4818      7.451   295.6482 1.2375e-01     6.3060      5.667      8.218    11.9416 0.0000e+00
      5.787      0.048     8.8965     82.663     42.967  31.747328     7.4454      7.450   295.7053 1.2375e-01     6.5354      5.673      8.228    11.9413 0.0000e+00
      5.800      0.048     8.9023     82.685     42.965  31.745713     7.4321      7.451   295.9781 1.2375e-01     6.6696      5.686      8.246    11.9410 0.0000e+00
      5.817      0.049     8.9087     82.693     42.948  31.733044     7.4371      7.453   296.3655 1.2375e-01     6.6656      5.707      8.277    11.9408 0.0000e+00
      5.831      0.051     8.9182     82.662     42.931  31.721029     7.4318      7.453   296.5175 1.2377e-01     6.6236      5.722      8.298    11.9410 0.0000e+00
      5.839      0.052     8.9192     82.612     42.940  31.727311     7.4182      7.453   295.8375 1.2377e-01     6.4004      5.725      8.304    11.9411 0.0000e+00
      5.850      0.051     8.9221     82.578     42.964  31.745566     7.4135      7.453   294.5958 1.2375e-01     6.0852      5.733      8.316    11.9409 0.0000e+00
      5.867      0.051     8.9249     82.565     42.972  31.751429     7.4251      7.454   294.0659 1.2375e-01     6.0236      5.754      8.345    11.9409 0.0000e+00
      5.883      0.052     8.9204     82.551     42.949  31.734760     7.4420      7.454   294.3349 1.2380e-01     5.9968      5.772      8.371    11.9410 0.0000e+00
      5.894      0.053     8.9128     82.517     42.949  31.734344     7.4428      7.454   294.8373 1.2386e-01     5.8638      5.779      8.382    11.9411 0.0000e+00
      5.907      0.053     8.9092     82.472     42.966  31.746399     7.4350      7.455   295.0636 1.2383e-01     5.8848      5.789      8.397    11.9414 0.0000e+00
      5.922      0.053     8.9087     82.436     42.976  31.753630     7.4386      7.457   294.5759 1.2376e-01     6.0118      5.808      8.424    11.9416 0.0000e+00
      5.935      0.055     8.9089     82.411     42.982  31.758338     7.4447      7.457   293.7591 1.2376e-01     6.0328      5.821      8.443    11.9414 0.0000e+00
      5.947      0.058     8.9039     82.386     42.957  31.739893     7.4261      7.457   293.3616 1.2380e-01     5.9678      5.830      8.457    11.9410 0.0000e+00
      5.961      0.062     8.8985     82.356     42.931  31.720919     7.3802      7.457   293.3831 1.2380e-01     5.9087      5.845      8.477    11.9408 0.0000e+00
      5.978      0.067     8.8945     82.335     42.929  31.719247     7.3641      7.458   293.5036 1.2379e-01     5.9337      5.863      8.503    11.9409 0.0000e+00
      5.996      0.070     8.8922     82.352     42.930  31.719672     7.3813      7.458   293.6135 1.2379e-01     5.9971      5.881      8.529    11.9411 0.0000e+00
      6.015      0.069     8.8900     82.400     42.938  31.726063     7.3881      7.459   293.8516 1.2381e-01     6.0598      5.897      8.553    11.9410 0.0000e+00
      6.037      0.065     8.8864     82.432     42.948  31.733077     7.3804      7.460   294.0589 1.2384e-01     6.1456      5.920      8.586    11.9410 0.0000e+00
      6.058      0.061     8.8823     82.443     42.959  31.741037     7.3626      7.461   293.8826 1.2387e-01     6.1466      5.945      8.623    11.9410 0.0000e+00
      6.072      0.058     8.8840     82.456     42.982  31.758868     7.3643      7.460   293.6988 1.2387e-01     6.1395      5.958      8.642    11.9408 0.0000e+00
      6.079      0.057     8.8928     82.487     42.982  31.758358     7.4015      7.460   293.5579 1.2381e-01     6.1282      5.959      8.643    11.9407 0.0000e+00
      6.088      0.056     8.8954     82.511     42.951  31.734864     7.4292      7.461   293.3838 1.2376e-01     5.9761      5.966      8.653    11.9408 0.0000e+00
      6.104      0.056     8.8959     82.504     42.942  31.728569     7.4237      7.461   293.9167 1.2380e-01     5.8371      5.985      8.680    11.9410 0.0000e+00
      6.123      0.058     8.8958     82.490     42.965  31.745682     7.4106      7.461   294.8385 1.2380e-01     5.8143      6.005      8.710    11.9409 0.0000e+00
      6.140      0.062     8.9006     82.486     42.973  31.751451     7.4040      7.461   295.0653 1.2377e-01     5.8359      6.024      8.737    11.9408 0.0000e+00
      6.154      0.065     8.9056     82.501     42.951  31.734877     7.3854      7.461   294.8513 1.2377e-01     5.8595      6.036      8.754    11.9407 0.0000e+00
      6.168      0.065     8.9017     82.511     42.951  31.735604     7.3443      7.462   294.4885 1.2378e-01     5.8611      6.047      8.771    11.9408 0.0000e+00
      6.184      0.063     8.9010     82.496     42.984  31.760241     7.3142      7.462   294.0350 1.2373e-01     5.8903      6.063      8.794    11.9409 0.0000e+00
      6.203      0.059     8.8991     82.485     43.010  31.779007     7.3050      7.462   294.3577 1.2369e-01     5.9389      6.083      8.823    11.9409 0.0000e+00
      6.223      0.053     8.9023     82.494     43.001  31.772191     7.3494      7.462   295.4650 1.2376e-01     6.0043      6.105      8.854    11.9408 0.0000e+00
      6.238      0.045     8.9051     82.507     42.959  31.741266     7.4507      7.462   296.1514 1.2387e-01     6.0998      6.121      8.878    11.9408 0.0000e+00
      6.246      0.036     8.9008     82.518     42.933  31.722294     7.4981      7.464   296.0323 1.2389e-01     6.1029      6.127      8.886    11.9409 0.0000e+00
      6.249      0.030     8.8993     82.545     42.948  31.733110     7.4648      7.465   295.6608 1.2381e-01     6.0424      6.128      8.888    11.9409 0.0000e+00
      6.253      0.027     8.9012     82.579     42.964  31.745164     7.2473      7.466   295.6166 1.2373e-01     6.0176      6.131      8.892    11.9408 0.0000e+00
      6.259      0.032     8.9037     82.609     42.958  31.741163     6.8752      7.466   296.4440 1.2375e-01     6.0074      6.137      8.900    11.9408 0.0000e+00
      6.266      0.050     8.9022     82.621     42.968  31.748177     6.6697      7.465   298.3519 1.2380e-01     5.9878      6.145      8.911    11.9409 0.0000e+00
      6.276      0.077     8.9074     82.622     42.993  31.766528     6.6012      7.460   300.1009 1.2376e-01     5.9163      6.155      8.926    11.9411 0.0000e+00
      6.288      0.103     8.9101     82.627     43.002  31.772731     6.2217      7.452   300.6412 1.2376e-01     5.7929      6.165      8.940    11.9410 0.0000e+00
      6.314      0.119     8.9148     82.613     42.984  31.759724     5.5613      7.443   300.9260 1.2381e-01     5.7255      6.179      8.962    11.9409 0.0000e+00
      6.365      0.123     8.9158     82.567     42.952  31.736134     5.1997      7.436   301.3931 1.2378e-01     5.7161      6.236      9.044    11.9410 0.0000e+00
      6.426      0.118     8.9139     82.493     42.958  31.741277     5.1704      7.431   300.7834 1.2377e-01     5.6790      6.313      9.157    11.9409 0.0000e+00
      6.463      0.103     8.9170     82.403     42.980  31.758465     5.3067      7.429   300.1785 1.2377e-01     5.6868      6.350      9.210    11.9407 0.0000e+00
      6.473      0.083     8.9151     82.308     42.971  31.753642     5.5652      7.429   301.7375 1.2376e-01     5.7419      6.350      9.208    11.9406 0.0000e+00
      6.476      0.063     8.9107     82.225     42.961  31.746401     5.7083      7.429   303.8012 1.2374e-01     5.7303      6.348      9.208    11.9407 0.0000e+00
      6.481      0.049     8.9013     82.169     42.945  31.734346     5.7213      7.430   305.3422 1.2373e-01     5.6495      6.356      9.218    11.9414 0.0000e+00
      6.491      0.044     8.8917     82.139     42.946  31.734762     5.7318      7.431   307.2910 1.2375e-01     5.5854      6.363      9.228    11.9429 0.0000e+00
      6.508      0.046     8.8796     82.114     42.969  31.751440     5.8845      7.432   308.0911 1.2375e-01     5.6379      6.380      9.253    11.9449 0.0000e+00
      6.528      0.048     8.8704     82.099     42.961  31.745681     6.1703      7.435   307.9615 1.2374e-01     5.8069      6.406      9.290    11.9457 0.0000e+00
      6.542      0.046     8.8639     82.102     42.938  31.728571     6.3398      7.437   309.5092 1.2370e-01     5.9543      6.419      9.310    11.9448 0.0000e+00
      6.549      0.043     8.8628     82.095     42.945  31.734876     6.3523      7.437   311.3182 1.2368e-01     5.9512      6.421      9.312    11.9438 0.0000e+00
      6.555      0.040     8.8596     82.085     42.976  31.758474     6.2633      7.437   311.7653 1.2373e-01     5.8375      6.427      9.322    11.9439 0.0000e+00
      6.563      0.040     8.8561     82.080     42.978  31.760139     6.1299      7.438   311.6450 1.2380e-01     5.7748      6.437      9.336    11.9442 0.0000e+00
      6.573      0.042     8.8600     82.075     42.973  31.755005     6.0791      7.441   310.1222 1.2382e-01     5.8085      6.444      9.346    11.9441 0.0000e+00
      6.585      0.044     8.8568     82.064     42.981  31.759838     6.0977      7.443   306.1731 1.2378e-01     5.8348      6.456      9.364    11.9454 0.0000e+00
      6.600      0.046     8.8559     82.048     42.975  31.755130     6.2387      7.443   302.0114 1.2373e-01     5.7848      6.473      9.389    11.9472 0.0000e+00
      6.615      0.048     8.8554     82.048     42.984  31.761522     6.5026      7.443   299.9834 1.2380e-01     5.6831      6.488      9.411    11.9466 0.0000e+00
      6.626      0.048     8.8551     82.045     43.001  31.773679     6.6668      7.444   299.0339 1.2384e-01     5.6645      6.499      9.426    11.9449 0.0000e+00
      6.634      0.048     8.8557     82.014     43.003  31.775249     6.7089      7.445   298.1020 1.2374e-01     5.7304      6.504      9.433    11.9435 0.0000e+00
      6.645      0.050     8.8512     81.966     43.010  31.780496     6.7707      7.445   298.2671 1.2377e-01     5.7967      6.515      9.449    11.9428 0.0000e+00
      6.659      0.053     8.8529     81.937     43.001  31.773690     6.8637      7.446   299.2229 1.2387e-01     5.8857      6.532      9.473    11.9429 0.0000e+00
      6.672      0.056     8.8542     81.941     42.978  31.756389     6.9100      7.448   299.3338 1.2387e-01     5.9179      6.542      9.487    11.9430 0.0000e+00
      6.687      0.058     8.8500     81.967     42.985  31.761627     6.9228      7.450   298.8337 1.2384e-01     5.9125      6.556      9.508    11.9426 0.0000e+00
      6.707      0.060     8.8430     81.968     43.002  31.773585     6.9769      7.450   298.0795 1.2381e-01     5.9230      6.579      9.542    11.9424 0.0000e+00
      6.722      0.064     8.8395     81.919     43.002  31.774095     7.0484      7.450   297.2700 1.2378e-01     5.8749      6.595      9.564    11.9423 0.0000e+00
      6.734      0.068     8.8403     81.886     42.994  31.767798     7.0716      7.451   297.7366 1.2376e-01     5.8091      6.602      9.574    11.9419 0.0000e+00
      6.749      0.071     8.8445     81.889     42.986  31.760887     7.0736      7.452   299.2467 1.2376e-01     5.8104      6.615      9.595    11.9421 0.0000e+00
      6.770      0.072     8.8485     81.859     42.976  31.753969     7.0817      7.453   299.8701 1.2377e-01     5.8561      6.638      9.627    11.9424 0.0000e+00
      6.793      0.072     8.8373     81.802     42.967  31.747586     7.0856      7.453   299.3371 1.2377e-01     5.9861      6.662      9.662    11.9419 0.0000e+00
      6.815      0.070     8.8326     81.755     42.967  31.747152     7.0874      7.453   298.5665 1.2380e-01     6.2205      6.685      9.696    11.9414 0.0000e+00
      6.833      0.066     8.8389     81.702     42.969  31.748720     7.0784      7.454   298.1242 1.2382e-01     6.4017      6.704      9.723    11.9411 0.0000e+00
      6.846      0.062     8.8341     81.645     42.994  31.766540     7.0774      7.455   298.2922 1.2381e-01     6.4352      6.714      9.738    11.9408 0.0000e+00
      6.859      0.061     8.8249     81.606     43.002  31.772298     7.1162      7.455   298.7901 1.2382e-01     6.3171      6.726      9.755    11.9406 0.0000e+00
      6.871      0.063     8.8224     81.566     42.978  31.754903     7.1821      7.456   299.0686 1.2384e-01     6.1016      6.739      9.775    11.9405 0.0000e+00
      6.884      0.068     8.8166     81.546     42.967  31.746528     7.2079      7.457   299.0780 1.2383e-01     5.9124      6.748      9.787    11.9403 0.0000e+00
      6.903      0.073     8.8078     81.573     42.951  31.734483     7.1953      7.459   299.0764 1.2380e-01     5.8740      6.767      9.814    11.9400 0.0000e+00
      6.928      0.077     8.8067     81.625     42.953  31.736148     7.2130      7.460   298.9620 1.2376e-01     6.0482      6.797      9.857    11.9398 0.0000e+00
      6.950      0.078     8.8012     81.691     42.994  31.766655     7.2553      7.461   298.4695 1.2373e-01     6.3105      6.817      9.887    11.9396 0.0000e+00
      6.970      0.075     8.7959     81.771     43.021  31.786148     7.2736      7.461   297.9397 1.2377e-01     6.4492      6.835      9.914    11.9397 0.0000e+00
      6.990      0.068     8.8019     81.841     43.014  31.781517     7.2676      7.461   297.8912 1.2380e-01     6.4274      6.858      9.947    11.9400 0.0000e+00
      7.006      0.058     8.8075     81.881     43.004  31.774106     7.3156      7.462   298.0552 1.2375e-01     6.3889      6.872      9.967    11.9403 0.0000e+00
      7.021      0.051     8.8134     81.876     42.985  31.759973     7.4303      7.462   298.2017 1.2372e-01     6.4270      6.884      9.985    11.9405 0.0000e+00
      7.033      0.049     8.8244     81.843     42.955  31.737520     7.4891      7.463   298.2862 1.2371e-01     6.4446      6.900     10.008    11.9405 0.0000e+00
      7.040      0.050     8.8314     81.824     42.981  31.756380     7.4773      7.464   297.6998 1.2371e-01     6.3965      6.905     10.014    11.9407 0.0000e+00
      7.047      0.053     8.8375     81.841     43.036  31.797695     7.3379      7.464   296.7044 1.2373e-01     6.4257      6.907     10.017    11.9408 0.0000e+00
      7.061      0.057     8.8360     81.878     43.030  31.792977     7.0767      7.465   296.3176 1.2373e-01     6.5591      6.922     10.040    11.9406 0.0000e+00
      7.081      0.061     8.8302     81.908     42.990  31.762768     6.9408      7.466   296.2922 1.2372e-01     6.6774      6.945     10.072    11.9402 0.0000e+00
      7.102      0.066     8.8277     81.941     42.972  31.749636     6.9267      7.466   296.4831 1.2372e-01     6.6940      6.966     10.103    11.9398 0.0000e+00
      7.119      0.068     8.8296     81.984     42.988  31.761077     6.9067      7.466   296.9906 1.2375e-01     6.6231      6.984     10.129    11.9399 0.0000e+00
      7.134      0.066     8.8367     82.043     43.006  31.774217     6.8477      7.467   297.2664 1.2381e-01     6.5721      6.995     10.145    11.9396 0.0000e+00
      7.151      0.060     8.8373     82.101     43.016  31.781642     6.7546      7.467   296.9790 1.2381e-01     6.5560      7.009     10.167    11.9393 0.0000e+00
      7.171      0.052     8.8419     82.132     43.024  31.787409     6.7056      7.467   296.2681 1.2371e-01     6.5302      7.033     10.201    11.9393 0.0000e+00
      7.186      0.044     8.8457     82.153     43.015  31.780508     6.6959      7.466   295.8122 1.2364e-01     6.4996      7.050     10.225    11.9390 0.0000e+00
      7.194      0.036     8.8525     82.181     42.989  31.761639     6.7287      7.466   295.7692 1.2368e-01     6.5619      7.057     10.235    11.9386 0.0000e+00
      7.199      0.027     8.8612     82.190     42.973  31.749585     6.8114      7.467   295.8339 1.2373e-01     6.7367      7.061     10.241    11.9385 0.0000e+00
      7.203      0.020     8.8629     82.161     42.990  31.761639     6.8636      7.467   295.9068 1.2378e-01     6.8703      7.063     10.245    11.9385 0.0000e+00
      7.205      0.018     8.8643     82.143     43.015  31.780509     6.8602      7.468   296.1334 1.2379e-01     6.9135      7.066     10.248    11.9385 0.0000e+00
      7.209      0.020     8.8682     82.133     43.024  31.787419     6.6790      7.468   296.5099 1.2379e-01     6.6789      7.068     10.252    11.9385 0.0000e+00
      7.214      0.025     8.8723     82.115     43.017  31.781756     6.3453      7.469   296.9313 1.2379e-01     6.2194      7.073     10.259    11.9385 0.0000e+00
      7.220      0.035     8.8637     82.110     43.008  31.775474     6.1796      7.469   297.7867 1.2379e-01     6.0036      7.080     10.269    11.9386 0.0000e+00
      7.228      0.054     8.8635     82.105     43.007  31.774903     6.1741      7.469   298.6790 1.2377e-01     6.0171      7.088     10.280    11.9386 0.0000e+00
      7.238      0.076     8.8644     82.097     43.007  31.774851     5.9949      7.468   298.9431 1.2375e-01     6.1426      7.099     10.295    11.9388 0.0000e+00
      7.253      0.086     8.8590     82.096     43.007  31.774847     5.8197      7.468   298.9151 1.2375e-01     6.2575      7.106     10.307    11.9388 0.0000e+00
      7.283 -9.990e-29     8.8612 -9.990e-29 -9.990e-29 -9.990e-29 -9.990e-29 -9.990e-29 -9.990e-29 1.2378e-01 -9.990e-29      7.132     10.345    11.9388 0.0000e+00
      7.331 -9.990e-29     8.8598 -9.990e-29 -9.990e-29 -9.990e-29 -9.990e-29 -9.990e-29 -9.990e-29 1.2380e-01 -9.990e-29      7.193     10.433    11.9388 0.0000e+00
      7.374 -9.990e-29     8.8584 -9.990e-29 -9.990e-29 -9.990e-29 -9.990e-29 -9.990e-29 -9.990e-29 1.2378e-01 -9.990e-29      7.243     10.505    11.9388 0.0000e+00
      7.390 -9.990e-29     8.8592 -9.990e-29 -9.990e-29 -9.990e-29 -9.990e-29 -9.990e-29 -9.990e-29 1.2376e-01 -9.990e-29      7.257     10.525    11.9386 0.0000e+00
