* Sea-Bird SBE19plus  Data File:
* FileName = C:\DATA\112019_fcr_0006.hex
* Software version 2.8.0.119 SB_Terminal.dll
* Temperature SN = 7809
* Conductivity SN = 7809
* System UpLoad Time = Nov 20 2019 19:44:21
* <ApplicationData>
* <Seaterm232>
* <SoftwareVersion>2.8.0.119</SoftwareVersion>
* <BuildDate>07-Nov-2018</BuildDate>
* </Seaterm232>
* </ApplicationData>
* cast   6 20 Nov 2019 13:39:14 samples 3377 to 4013, avg = 1, stop = mag switch
# nquan = 16
# nvalues = 430                         
# units = specified
# name 0 = depFM: Depth [fresh water, m]
# name 1 = dz/dtM: Descent Rate [m/s]
# name 2 = sbeox0ML/L: Oxygen, SBE 43 [ml/l]
# name 3 = sbeox0PS: Oxygen, SBE 43 [% saturation]
# name 4 = specc: Specific Conductance [uS/cm]
# name 5 = c0uS/cm: Conductivity [uS/cm]
# name 6 = flECO-AFL: Fluorescence, WET Labs ECO-AFL/FL [mg/m^3]
# name 7 = ph: pH
# name 8 = orp: Oxidation Reduction Potential [mV]
# name 9 = par/sat/log: PAR/Logarithmic, Satlantic
# name 10 = turbWETntu0: Turbidity, WET Labs ECO [NTU]
# name 11 = prdM: Pressure, Strain Gauge [db]
# name 12 = prdE: Pressure, Strain Gauge [psi]
# name 13 = tv290C: Temperature [ITS-90, deg C]
# name 14 = density00: Density [density, kg/m^3]
# name 15 = flag:  0.000e+00
# span 0 =     -0.428,      9.809       
# span 1 =     -0.020,      0.235       
# span 2 =     6.6867,     8.7528       
# span 3 =     80.982,    105.217       
# span 4 =     40.227,    335.335       
# span 5 =  26.565073, 222.751450       
# span 6 =    -2.0114,     4.2142       
# span 7 =      7.132,      8.727       
# span 8 =   260.6644,   295.1133       
# span 9 = 1.2363e-01, 1.3016e+03       
# span 10 =     6.2573,     8.9537      
# span 11 =     -0.448,      9.620      
# span 12 =     -0.650,     13.952      
# span 13 =     7.3782,    11.5332      
# span 14 =   999.5596,  1000.0240      
# span 15 = 0.0000e+00, 0.0000e+00      
# interval = seconds: 0.25
# start_time = Nov 20 2019 13:39:14 [Instrument's time stamp, header]
# bad_flag = -9.990e-29
# <Sensors count="9" >
#   <sensor Channel="1" >
#     <!-- Count, Temperature -->
#     <TemperatureSensor SensorID="58" >
#       <SerialNumber>7809</SerialNumber>
#       <CalibrationDate>24-Mar-19</CalibrationDate>
#       <A0>1.21792325e-003</A0>
#       <A1>2.81669265e-004</A1>
#       <A2>-1.60333336e-006</A2>
#       <A3>1.98414625e-007</A3>
#       <Slope>1.00000000</Slope>
#       <Offset>0.0000</Offset>
#     </TemperatureSensor>
#   </sensor>
#   <sensor Channel="2" >
#     <!-- Frequency 0, Conductivity -->
#     <ConductivitySensor SensorID="3" >
#       <SerialNumber>7809</SerialNumber>
#       <CalibrationDate>24-Mar-19</CalibrationDate>
#       <UseG_J>1</UseG_J>
#       <!-- Cell const and series R are applicable only for wide range sensors. -->
#       <SeriesR>0.0000</SeriesR>
#       <CellConst>2000.0000</CellConst>
#       <ConductivityType>0</ConductivityType>
#       <Coefficients equation="0" >
#         <A>0.00000000e+000</A>
#         <B>0.00000000e+000</B>
#         <C>0.00000000e+000</C>
#         <D>0.00000000e+000</D>
#         <M>0.0</M>
#         <CPcor>-9.57000000e-008</CPcor>
#       </Coefficients>
#       <Coefficients equation="1" >
#         <G>-1.00589325e+000</G>
#         <H>1.26816302e-001</H>
#         <I>-1.51560448e-004</I>
#         <J>2.67137274e-005</J>
#         <CPcor>-9.57000000e-008</CPcor>
#         <CTcor>3.2500e-006</CTcor>
#         <!-- WBOTC not applicable unless ConductivityType = 1. -->
#         <WBOTC>0.00000000e+000</WBOTC>
#       </Coefficients>
#       <Slope>1.00000000</Slope>
#       <Offset>0.00000</Offset>
#     </ConductivitySensor>
#   </sensor>
#   <sensor Channel="3" >
#     <!-- Count, Pressure, Strain Gauge -->
#     <PressureSensor SensorID="46" >
#       <SerialNumber>7809</SerialNumber>
#       <CalibrationDate>11-Mar-19</CalibrationDate>
#       <PA0>4.56561833e-002</PA0>
#       <PA1>4.85095118e-004</PA1>
#       <PA2>-2.88327090e-012</PA2>
#       <PTEMPA0>-5.48784562e+001</PTEMPA0>
#       <PTEMPA1>5.53756816e+001</PTEMPA1>
#       <PTEMPA2>-5.86727098e-001</PTEMPA2>
#       <PTCA0>5.25246745e+005</PTCA0>
#       <PTCA1>1.22304214e+001</PTCA1>
#       <PTCA2>-3.56745036e-001</PTCA2>
#       <PTCB0>2.51668750e+001</PTCB0>
#       <PTCB1>3.75000000e-004</PTCB1>
#       <PTCB2>0.00000000e+000</PTCB2>
#       <Offset>0.000000</Offset>
#     </PressureSensor>
#   </sensor>
#   <sensor Channel="4" >
#     <!-- A/D voltage 0, Oxygen, SBE 43 -->
#     <OxygenSensor SensorID="38" >
#       <SerialNumber>0434</SerialNumber>
#       <CalibrationDate>13-Apr-19</CalibrationDate>
#       <Use2007Equation>1</Use2007Equation>
#       <CalibrationCoefficients equation="0" >
#         <!-- Coefficients for Owens-Millard equation. -->
#         <Boc>0.0000</Boc>
#         <Soc>0.0000e+000</Soc>
#         <offset>0.0000</offset>
#         <Pcor>0.00e+000</Pcor>
#         <Tcor>0.0000</Tcor>
#         <Tau>0.0</Tau>
#       </CalibrationCoefficients>
#       <CalibrationCoefficients equation="1" >
#         <!-- Coefficients for Sea-Bird equation - SBE calibration in 2007 and later. -->
#         <Soc>4.2007e-001</Soc>
#         <offset>-0.6109</offset>
#         <A>-4.3656e-003</A>
#         <B> 1.7017e-004</B>
#         <C>-2.5341e-006</C>
#         <D0> 2.5826e+000</D0>
#         <D1> 1.92634e-004</D1>
#         <D2>-4.64803e-002</D2>
#         <E> 3.6000e-002</E>
#         <Tau20> 1.1800</Tau20>
#         <H1>-3.3000e-002</H1>
#         <H2> 5.0000e+003</H2>
#         <H3> 1.4500e+003</H3>
#       </CalibrationCoefficients>
#     </OxygenSensor>
#   </sensor>
#   <sensor Channel="5" >
#     <!-- A/D voltage 1, PAR/Logarithmic, Satlantic -->
#     <PARLog_SatlanticSensor SensorID="76" >
#       <SerialNumber>1122</SerialNumber>
#       <CalibrationDate>08-May-2019</CalibrationDate>
#       <a0>9.7456e-001</a0>
#       <a1>8.1640e-001</a1>
#       <Im>1.3589e+000</Im>
#       <Multiplier>1.0000e+000</Multiplier>
#     </PARLog_SatlanticSensor>
#   </sensor>
#   <sensor Channel="6" >
#     <!-- A/D voltage 2, pH -->
#     <pH_Sensor SensorID="43" >
#       <SerialNumber>0363</SerialNumber>
#       <CalibrationDate>15-Apr-19</CalibrationDate>
#       <Slope>4.5952</Slope>
#       <Offset>2.5370</Offset>
#     </pH_Sensor>
#   </sensor>
#   <sensor Channel="7" >
#     <!-- A/D voltage 3, Oxidation Reduction Potential -->
#     <OxidationReductionPotentialSensor SensorID="41" >
#       <SerialNumber>0363</SerialNumber>
#       <CalibrationDate>15-Apr-19</CalibrationDate>
#       <B>2.499480</B>
#       <M>-0.496195</M>
#       <Offset>0.0</Offset>
#     </OxidationReductionPotentialSensor>
#   </sensor>
#   <sensor Channel="8" >
#     <!-- A/D voltage 4, Fluorometer, WET Labs ECO-AFL/FL -->
#     <FluoroWetlabECO_AFL_FL_Sensor SensorID="20" >
#       <SerialNumber>FLNTURT-2496</SerialNumber>
#       <CalibrationDate>08-May-2019</CalibrationDate>
#       <ScaleFactor>5.00000000e+001</ScaleFactor>
#       <!-- Dark output -->
#       <Vblank>0.0550</Vblank>
#     </FluoroWetlabECO_AFL_FL_Sensor>
#   </sensor>
#   <sensor Channel="9" >
#     <!-- A/D voltage 5, Turbidity Meter, WET Labs, ECO-NTU -->
#     <TurbidityMeter SensorID="67" >
#       <SerialNumber>FLNTURT-2496</SerialNumber>
#       <CalibrationDate>08-May-2019</CalibrationDate>
#       <ScaleFactor>189.000000</ScaleFactor>
#       <!-- Dark output -->
#       <DarkVoltage>0.071000</DarkVoltage>
#     </TurbidityMeter>
#   </sensor>
# </Sensors>
# datcnv_date = Nov 20 2019 19:47:44, 7.26.7.129 [datcnv_vars = 15]
# datcnv_in = C:\DATA\112019_fcr_0006.hex C:\DATA\SBE19plusV2_7809.xmlcon
# datcnv_skipover = 0
# datcnv_ox_hysteresis_correction = yes
# datcnv_ox_tau_correction = yes
# filter_date = Nov 20 2019 19:48:27, 7.26.7.129
# filter_in = C:\DATA\112019_fcr_0006.cnv
# filter_low_pass_tc_A = 0.030
# filter_low_pass_tc_B = 0.150
# filter_low_pass_A_vars = sbeox0ML/L prdM prdE tv290C density00
# filter_low_pass_B_vars = depFM dz/dtM sbeox0PS specc c0uS/cm flECO-AFL ph orp par/sat/log turbWETntu0
# alignctd_date = Nov 20 2019 19:49:41, 7.26.7.129
# alignctd_in = C:\DATA\112019_fcr_0006.cnv
# alignctd_adv = dz/dtM 1.000, sbeox0PS 1.000, specc 1.000, c0uS/cm 1.000, flECO-AFL 1.000, ph 1.000, orp 1.000, turbWETntu0 1.000                                                                                                   
# file_type = ascii
*END*
     -0.428      0.171     7.2488     95.517     40.227  27.376001    -2.0114      8.520   288.3619 1.0162e+03     8.7877     -0.448     -0.650    11.5332   999.5596 0.0000e+00
     -0.345      0.200     7.3702     95.628     40.590  27.364428    -1.9741      8.630   275.8480 1.0361e+03     8.9537     -0.340     -0.493    10.8523   999.6350 0.0000e+00
     -0.250      0.223     7.5196     95.768     40.934  27.425297    -1.0997      8.692   268.3572 1.0839e+03     8.6314     -0.227     -0.330    10.0512   999.7127 0.0000e+00
     -0.189      0.235     7.6358     95.989     41.271  27.540762     0.5239      8.721   266.3642 1.0594e+03     8.0374     -0.173     -0.250     9.4440   999.7633 0.0000e+00
     -0.154      0.230     7.7302     96.338     41.481  27.618367     1.4182      8.727   265.1737 1.1348e+03     7.7030     -0.155     -0.224     8.9707   999.8009 0.0000e+00
     -0.113      0.212     7.7952     96.818     41.576  27.665632     1.5028      8.721   264.3737 1.3016e+03     7.6687     -0.124     -0.180     8.6719   999.8221 0.0000e+00
     -0.050      0.194     7.8424     97.408     41.649  27.731533     1.5031      8.709   263.7464 1.1180e+03     7.6557     -0.046     -0.067     8.4724   999.8366 0.0000e+00
      0.014      0.178     7.8822     98.061     41.673  27.780719     1.5179      8.698   263.1820 6.7456e+02     7.4475      0.020      0.028     8.3480   999.8450 0.0000e+00
      0.065      0.156     7.9278     98.702     41.588  27.752792     1.5601      8.689   262.7977 5.1612e+02     7.0526      0.065      0.093     8.2657   999.8507 0.0000e+00
      0.105      0.124     7.9688     99.271     41.424  27.647692     1.5721      8.680   262.4554 7.0344e+02     6.7808      0.109      0.157     8.2547   999.8516 0.0000e+00
      0.131      0.090     8.0143     99.615     41.274  27.525121     1.5581      8.670   262.0543 9.1337e+02     6.7176      0.136      0.196     8.2835   999.8499 0.0000e+00
      0.139      0.064     8.0600     99.095     41.254  27.476266     1.5561      8.657   261.6476 9.7740e+02     6.8127      0.139      0.203     8.3305   999.8470 0.0000e+00
      0.138      0.048     8.1070     97.241     41.344  27.501080     1.5560      8.640   261.3236 8.7752e+02     6.9467      0.133      0.194     8.3779   999.8438 0.0000e+00
      0.141      0.038     8.1507     94.882     41.400  27.507878     1.5569      8.625   261.1490 7.2174e+02     6.9948      0.134      0.195     8.3833   999.8433 0.0000e+00
      0.153      0.033     8.2056     93.011     41.423  27.494978     1.5669      8.612   261.0850 6.9415e+02     7.0016      0.148      0.215     8.3458   999.8458 0.0000e+00
      0.171      0.028     8.2082     91.730     41.425  27.471982     1.5984      8.601   261.0659 7.0056e+02     6.9305      0.169      0.245     8.2970   999.8491 0.0000e+00
      0.185      0.020     8.0213     90.895     41.379  27.420152     1.6521      8.593   260.9174 6.8806e+02     6.7578      0.185      0.269     8.2554   999.8519 0.0000e+00
      0.190      0.008     7.7938     90.327     41.339  27.375861     1.6871      8.585   260.7533 7.6153e+02     6.6178      0.190      0.275     8.2190   999.8542 0.0000e+00
      0.186     -0.005     7.6586     89.960     41.366  27.380561     1.6927      8.574   260.8026 9.1394e+02     6.5807      0.185      0.267     8.1851   999.8563 0.0000e+00
      0.176     -0.014     7.5577     90.073     41.431  27.413528     1.6930      8.560   260.8246 9.8947e+02     6.6704      0.172      0.250     8.1554   999.8581 0.0000e+00
      0.165     -0.017     7.4996     90.645     41.507  27.457214     1.6915      8.545   260.7607 8.7162e+02     6.8503      0.161      0.233     8.1294   999.8597 0.0000e+00
      0.159     -0.015     7.4656     91.197     41.616  27.528086     1.6913      8.533   260.7190 8.8688e+02     6.9852      0.155      0.224     8.1077   999.8610 0.0000e+00
      0.158     -0.012     7.4201     91.592     41.675  27.572512     1.6903      8.522   260.6644 1.0722e+03     7.0233      0.154      0.223     8.0918   999.8619 0.0000e+00
      0.159     -0.010     7.4289     92.040     41.630  27.550246     1.6801      8.512   260.7026 9.7167e+02     6.9838      0.156      0.226     8.0811   999.8627 0.0000e+00
      0.161     -0.010     7.5044     92.635     41.572  27.512668     1.6897      8.502   260.8372 7.6025e+02     6.8363      0.158      0.230     8.0720   999.8632 0.0000e+00
      0.159     -0.009     7.5518     93.353     41.560  27.498837     1.7279      8.493   260.9155 7.5776e+02     6.6157      0.159      0.229     8.0676   999.8635 0.0000e+00
      0.152     -0.008     7.5705     94.022     41.587  27.509906     1.7515      8.484   260.9600 7.3701e+02     6.5115      0.150      0.217     8.0781   999.8629 0.0000e+00
      0.144     -0.006     7.6056     94.392     41.610  27.519602     1.7505      8.475   261.1178 6.6435e+02     6.5267      0.139      0.202     8.0921   999.8619 0.0000e+00
      0.142     -0.003     7.6539     94.344     41.570  27.489180     1.7418      8.467   261.3615 6.7344e+02     6.5704      0.137      0.199     8.0908   999.8620 0.0000e+00
      0.145      0.002     7.7202     93.905     41.527  27.459299     1.7411      8.459   261.5831 7.6835e+02     6.6796      0.143      0.207     8.0811   999.8626 0.0000e+00
      0.150      0.006     7.7875     93.189     41.552  27.475549     1.7506      8.454   261.8175 8.5258e+02     6.7976      0.148      0.214     8.0724   999.8632 0.0000e+00
      0.153      0.008     7.8216     92.331     41.581  27.495310     1.7524      8.449   262.0453 8.2686e+02     6.8505      0.151      0.218     8.0652   999.8636 0.0000e+00
      0.155      0.008     7.8176     91.438     41.601  27.507885     1.7457      8.444   262.1863 7.4760e+02     6.8931      0.152      0.220     8.0607   999.8639 0.0000e+00
      0.156      0.008     7.7781     90.621     41.591  27.500699     1.7389      8.439   262.2310 6.3231e+02     6.9847      0.152      0.220     8.0592   999.8640 0.0000e+00
      0.157      0.009     7.7138     89.980     41.549  27.471874     1.7399      8.434   262.2416 5.4892e+02     7.0733      0.154      0.224     8.0598   999.8640 0.0000e+00
      0.159      0.011     7.6408     89.576     41.558  27.476594     1.7489      8.428   262.3147 5.5487e+02     7.0796      0.156      0.227     8.0603   999.8640 0.0000e+00
      0.160      0.013     7.5631     89.429     41.586  27.494325     1.7523      8.420   262.4271 6.4452e+02     6.9956      0.157      0.228     8.0605   999.8640 0.0000e+00
      0.164      0.014     7.4928     89.545     41.587  27.495922     1.7552      8.411   262.4820 7.3677e+02     6.8769      0.161      0.232     8.0595   999.8641 0.0000e+00
      0.171      0.011     7.4383     89.910     41.585  27.495898     1.7586      8.402   262.4617 7.1742e+02     6.8244      0.168      0.243     8.0573   999.8642 0.0000e+00
      0.177      0.005     7.4046     90.394     41.581  27.494039     1.7501      8.395   262.4407 6.4862e+02     6.8188      0.175      0.254     8.0556   999.8644 0.0000e+00
      0.180     -0.001     7.3935     90.898     41.549  27.473449     1.7291      8.390   262.4861 6.2985e+02     6.6786      0.179      0.260     8.0553   999.8644 0.0000e+00
      0.178     -0.008     7.4004     91.431     41.494  27.437278     1.7041      8.385   262.4942 6.2063e+02     6.4402      0.176      0.256     8.0564   999.8643 0.0000e+00
      0.171     -0.013     7.4365     91.941     41.494  27.437382     1.7003      8.379   262.4529 5.5308e+02     6.3286      0.168      0.243     8.0582   999.8641 0.0000e+00
      0.163     -0.017     7.4810     92.346     41.549  27.474706     1.7090      8.372   262.5028 5.6557e+02     6.3451      0.159      0.231     8.0589   999.8641 0.0000e+00
      0.158     -0.018     7.5183     92.594     41.597  27.507883     1.7051      8.365   262.5814 6.5817e+02     6.3785      0.154      0.222     8.0594   999.8640 0.0000e+00
      0.155     -0.017     7.5660     92.639     41.616  27.521290     1.7221      8.360   262.6285 6.5342e+02     6.5355      0.152      0.220     8.0600   999.8639 0.0000e+00
      0.153     -0.015     7.6108     92.518     41.599  27.509910     1.7672      8.354   262.6422 6.5926e+02     6.8015      0.151      0.219     8.0598   999.8639 0.0000e+00
      0.149     -0.012     7.6442     92.332     41.581  27.497185     1.7997      8.348   262.6608 8.6126e+02     6.9390      0.147      0.213     8.0609   999.8639 0.0000e+00
      0.144     -0.009     7.6677     92.135     41.577  27.494326     1.8202      8.343   262.8538 1.0099e+03     6.9859      0.140      0.203     8.0633   999.8637 0.0000e+00
      0.141     -0.004     7.6692     91.911     41.549  27.475345     1.8420      8.338   263.0829 1.0161e+03     7.0089      0.136      0.198     8.0640   999.8637 0.0000e+00
      0.140      0.002     7.6557     91.666     41.524  27.458032     1.8634      8.332   263.1929 1.0329e+03     6.9872      0.137      0.198     8.0635   999.8637 0.0000e+00
      0.141      0.008     7.6383     91.393     41.551  27.475336     1.8796      8.325   263.3241 8.8794e+02     6.9866      0.138      0.200     8.0630   999.8637 0.0000e+00
      0.145      0.013     7.6241     91.048     41.581  27.494214     1.8823      8.317   263.4647 6.9129e+02     7.0012      0.141      0.205     8.0622   999.8638 0.0000e+00
      0.151      0.015     7.6054     90.701     41.584  27.495939     1.8442      8.310   263.6873 7.7204e+02     7.0000      0.148      0.214     8.0617   999.8638 0.0000e+00
      0.157      0.015     7.5834     90.430     41.584  27.496199     1.7743      8.302   263.9505 9.5926e+02     7.0048      0.154      0.223     8.0610   999.8639 0.0000e+00
      0.162      0.014     7.5661     90.185     41.585  27.497358     1.7393      8.297   264.0660 9.1437e+02     7.0263      0.160      0.232     8.0600   999.8640 0.0000e+00
      0.167      0.011     7.5334     89.937     41.605  27.509953     1.7500      8.292   264.2247 7.1851e+02     7.0295      0.165      0.240     8.0589   999.8641 0.0000e+00
      0.167      0.009     7.5008     89.751     41.624  27.521593     1.7570      8.287   264.4923 5.8697e+02     6.9784      0.164      0.239     8.0587   999.8641 0.0000e+00
      0.166      0.009     7.4822     89.652     41.608  27.511201     1.7453      8.283   264.7209 6.5850e+02     6.8675      0.162      0.234     8.0598   999.8640 0.0000e+00
      0.166      0.009     7.4629     89.619     41.605  27.511201     1.7469      8.280   264.8374 7.7731e+02     6.7704      0.162      0.235     8.0606   999.8640 0.0000e+00
      0.170      0.010     7.4391     89.640     41.619  27.521593     1.7594      8.277   264.8677 7.6231e+02     6.7545      0.166      0.241     8.0599   999.8640 0.0000e+00
      0.175      0.012     7.4230     89.640     41.601  27.509955     1.7919      8.274   264.9155 7.8814e+02     6.7731      0.172      0.249     8.0581   999.8642 0.0000e+00
      0.179      0.013     7.4173     89.557     41.583  27.497383     1.8535      8.269   264.8995 8.0674e+02     6.7661      0.176      0.256     8.0576   999.8642 0.0000e+00
      0.182      0.014     7.4123     89.453     41.583  27.496478     1.8804      8.265   264.8464 7.9310e+02     6.7685      0.179      0.260     8.0600   999.8641 0.0000e+00
      0.185      0.016     7.4169     89.354     41.589  27.499007     1.8745      8.261   264.9611 9.6742e+02     6.8025      0.182      0.263     8.0627   999.8640 0.0000e+00
      0.188      0.019     7.4207     89.198     41.632  27.527961     1.8959      8.255   265.1681 1.0634e+03     6.8162      0.184      0.267     8.0627   999.8640 0.0000e+00
      0.192      0.020     7.4096     88.990     41.719  27.592777     1.9305      8.247   265.2836 8.2922e+02     6.8035      0.187      0.270     8.0615   999.8640 0.0000e+00
      0.198      0.019     7.3998     88.797     41.780  27.648224     1.9369      8.240   265.3258 6.1272e+02     6.7797      0.193      0.279     8.0602   999.8641 0.0000e+00
      0.208      0.015     7.3960     88.627     41.821  27.690803     1.9303      8.235   265.3344 6.0475e+02     6.7579      0.205      0.297     8.0587   999.8643 0.0000e+00
      0.216      0.009     7.3830     88.442     41.862  27.726928     1.9371      8.230   265.3877 6.5735e+02     6.7693      0.215      0.311     8.0568   999.8645 0.0000e+00
      0.216      0.003     7.3610     88.219     41.823  27.704326     1.9504      8.226   265.4536 7.0356e+02     6.8838      0.214      0.310     8.0631   999.8642 0.0000e+00
      0.211     -0.002     7.3415     87.933     41.771  27.671312     1.9696      8.220   265.4433 7.6026e+02     7.0611      0.208      0.302     8.0856   999.8627 0.0000e+00
      0.206     -0.004     7.3250     87.554     41.821  27.708455     1.9873      8.211   265.5210 7.4364e+02     7.1438      0.201      0.292     8.1092   999.8612 0.0000e+00
      0.202     -0.004     7.3084     87.107     41.907  27.772738     1.9905      8.202   265.7045 6.7943e+02     7.1627      0.197      0.286     8.1169   999.8608 0.0000e+00
      0.201     -0.004     7.2903     86.648     41.966  27.814083     1.9918      8.195   265.7691 6.4786e+02     7.1918      0.194      0.282     8.1190   999.8606 0.0000e+00
      0.206     -0.004     7.2683     86.207     41.990  27.827665     1.9938      8.190   265.6999 7.0012e+02     7.2006      0.201      0.291     8.1193   999.8606 0.0000e+00
      0.211     -0.003     7.2352     85.773     41.967  27.810065     1.9888      8.186   265.8144 7.8859e+02     7.1704      0.211      0.305     8.1228   999.8605 0.0000e+00
      0.208      0.001     7.1939     85.339     41.842  27.728166     1.9827      8.181   266.2059 7.8284e+02     7.1548      0.205      0.296     8.1371   999.8596 0.0000e+00
      0.202      0.012     7.1544     84.915     41.640  27.598803     1.9295      8.173   266.5625 6.8589e+02     7.2079      0.196      0.284     8.1391   999.8595 0.0000e+00
      0.197      0.032     7.1201     84.521     41.503  27.514909     1.8312      8.161   266.7714 5.2959e+02     7.2561      0.193      0.279     8.1331   999.8598 0.0000e+00
      0.198      0.057     7.0850     84.192     41.436  27.475179     1.7739      8.149   267.0965 4.5326e+02     7.2459      0.190      0.275     8.1299   999.8600 0.0000e+00
      0.214      0.087     7.0482     83.944     41.384  27.435670     1.7567      8.138   267.7404 4.4796e+02     7.2161      0.200      0.291     8.1304   999.8599 0.0000e+00
      0.250      0.115     7.0127     83.804     41.376  27.417886     1.8217      8.129   268.4468 4.0061e+02     7.2560      0.243      0.355     8.1364   999.8597 0.0000e+00
      0.295      0.136     6.9759     83.822     41.444  27.450478     1.9626      8.120   268.8406 3.8007e+02     7.3678      0.292      0.424     8.1461   999.8593 0.0000e+00
      0.336      0.146     6.9475     84.068     41.546  27.512494     2.0376      8.110   269.0597 3.8998e+02     7.4212      0.328      0.476     8.1578   999.8588 0.0000e+00
      0.377      0.145     6.9274     84.593     41.572  27.533241     2.0521      8.103   269.2893 3.7219e+02     7.4095      0.370      0.537     8.1498   999.8594 0.0000e+00
      0.416      0.139     6.9175     85.314     41.531  27.510991     2.0943      8.099   269.4667 3.4173e+02     7.4223      0.410      0.595     8.1296   999.8609 0.0000e+00
      0.450      0.132     6.9207     86.107     41.510  27.497263     2.1581      8.095   269.6562 3.2685e+02     7.4452      0.445      0.645     8.1131   999.8620 0.0000e+00
      0.477      0.127     6.9385     86.925     41.506  27.494149     2.1914      8.089   269.8593 3.1915e+02     7.4249      0.468      0.679     8.1038   999.8628 0.0000e+00
      0.503      0.122     6.9845     87.703     41.471  27.473343     2.1932      8.084   270.0298 3.0770e+02     7.4061      0.488      0.708     8.1120   999.8624 0.0000e+00
      0.536      0.119     7.0473     88.367     41.415  27.436041     2.1968      8.079   270.3398 2.9515e+02     7.4136      0.526      0.763     8.1235   999.8618 0.0000e+00
      0.571      0.119     7.1126     88.909     41.406  27.423809     2.2441      8.072   270.7687 2.8020e+02     7.3846      0.563      0.819     8.1191   999.8623 0.0000e+00
      0.601      0.120     7.1832     89.308     41.462  27.452332     2.3231      8.064   270.9138 2.6919e+02     7.3181      0.590      0.856     8.1163   999.8626 0.0000e+00
      0.628      0.115     7.2495     89.504     41.577  27.527113     2.3630      8.057   270.8038 2.5973e+02     7.2647      0.615      0.892     8.1241   999.8623 0.0000e+00
      0.657      0.104     7.3031     89.524     41.725  27.630064     2.3625      8.052   270.7283 2.4254e+02     7.1981      0.642      0.931     8.1251   999.8622 0.0000e+00
      0.689      0.088     7.3492     89.429     41.805  27.681947     2.3163      8.048   270.7766 2.3138e+02     7.0037      0.678      0.982     8.1169   999.8629 0.0000e+00
      0.719      0.072     7.3894     89.231     41.761  27.646848     2.2378      8.044   271.0427 2.3579e+02     6.7177      0.711      1.031     8.0999   999.8642 0.0000e+00
      0.734      0.058     7.4043     88.951     41.673  27.586377     2.1943      8.039   271.2792 2.3908e+02     6.5583      0.725      1.051     8.0959   999.8645 0.0000e+00
      0.736      0.044     7.3998     88.584     41.669  27.585265     2.1801      8.033   271.3987 2.3403e+02     6.5509      0.723      1.049     8.1135   999.8635 0.0000e+00
      0.736      0.033     7.3940     88.127     41.734  27.633405     2.2216      8.026   271.5412 2.3455e+02     6.6274      0.717      1.043     8.1101   999.8637 0.0000e+00
      0.743      0.025     7.3783     87.642     41.762  27.660850     2.3153      8.020   271.5395 2.3240e+02     6.7628      0.725      1.053     8.0953   999.8646 0.0000e+00
      0.754      0.023     7.3557     87.161     41.752  27.663323     2.3595      8.015   271.5506 2.2151e+02     6.8116      0.741      1.076     8.0955   999.8647 0.0000e+00
      0.764      0.024     7.3265     86.683     41.743  27.663320     2.3576      8.012   271.6753 2.1759e+02     6.7591      0.752      1.091     8.0979   999.8646 0.0000e+00
      0.769      0.024     7.2841     86.217     41.737  27.660813     2.3874      8.011   271.7559 2.2086e+02     6.7503      0.756      1.096     8.1021   999.8644 0.0000e+00
      0.771      0.022     7.2416     85.761     41.695  27.633017     2.4511      8.008   271.8379 2.2172e+02     6.8033      0.755      1.095     8.1143   999.8636 0.0000e+00
      0.776      0.021     7.2000     85.322     41.619  27.581023     2.4948      8.002   272.0637 2.1780e+02     6.8433      0.760      1.102     8.1283   999.8627 0.0000e+00
      0.782      0.024     7.1582     84.920     41.562  27.539733     2.4992      7.996   272.4216 2.1853e+02     6.8404      0.769      1.116     8.1351   999.8624 0.0000e+00
      0.787      0.030     7.1207     84.572     41.530  27.514467     2.4863      7.990   272.7238 2.2627e+02     6.9651      0.773      1.120     8.1348   999.8624 0.0000e+00
      0.792      0.035     7.0821     84.288     41.560  27.529319     2.5385      7.984   272.8778 2.2715e+02     7.2691      0.774      1.122     8.1357   999.8624 0.0000e+00
      0.803      0.036     7.0457     84.072     41.657  27.592412     2.6625      7.979   272.8205 2.2037e+02     7.4681      0.786      1.140     8.1350   999.8624 0.0000e+00
      0.819      0.032     7.0128     83.916     41.730  27.642845     2.7366      7.977   272.7201 2.1592e+02     7.4709      0.804      1.166     8.1284   999.8629 0.0000e+00
      0.834      0.026     6.9845     83.798     41.714  27.631516     2.7327      7.975   272.8679 2.1203e+02     7.4007      0.820      1.190     8.1247   999.8632 0.0000e+00
      0.841      0.020     6.9622     83.709     41.648  27.582332     2.6588      7.971   273.2305 2.0398e+02     7.1111      0.829      1.202     8.1167   999.8637 0.0000e+00
      0.839      0.013     6.9450     83.627     41.618  27.555742     2.5544      7.968   273.4915 1.9899e+02     6.6238      0.825      1.195     8.1140   999.8639 0.0000e+00
      0.834      0.007     6.9319     83.506     41.638  27.563800     2.5105      7.965   273.5278 2.0046e+02     6.3588      0.815      1.182     8.1219   999.8635 0.0000e+00
      0.832      0.003     6.9224     83.320     41.624  27.552856     2.5094      7.963   273.4122 2.0223e+02     6.3326      0.814      1.180     8.1196   999.8636 0.0000e+00
      0.837      0.004     6.9168     83.089     41.428  27.423424     2.5933      7.962   273.2982 1.9876e+02     6.4716      0.821      1.191     8.1119   999.8640 0.0000e+00
      0.842      0.009     6.9131     82.767     41.101  27.204335     2.7701      7.962   273.3546 1.9514e+02     6.7286      0.827      1.200     8.1042   999.8645 0.0000e+00
      0.843      0.017     6.9058     82.197     40.907  27.061043     2.8620      7.959   273.5772 1.9626e+02     6.8510      0.826      1.198     8.0948   999.8651 0.0000e+00
      0.843      0.030     6.8891     81.434     40.905  27.023248     2.8540      7.954   273.9240 1.9913e+02     6.8693      0.825      1.196     8.0950   999.8651 0.0000e+00
      0.847      0.047     6.8690     80.982     40.937  27.001095     2.8734      7.948   274.2789 2.0184e+02     6.9503      0.830      1.203     8.0969   999.8649 0.0000e+00
      0.857      0.065     6.8505     81.398     40.959  26.983482     2.9324      7.940   274.5992 1.9299e+02     7.1097      0.837      1.214     8.0975   999.8648 0.0000e+00
      0.877      0.081     6.8069     82.905     41.014  27.000605     2.9689      7.932   274.7846 1.8245e+02     7.2230      0.853      1.237     8.0871   999.8654 0.0000e+00
      0.909      0.088     6.7335     85.425     41.055  27.017764     2.9754      7.923   274.7143 1.7694e+02     7.2386      0.888      1.288     8.0330   999.8689 0.0000e+00
      0.945      0.085     6.6867     88.701     41.036  27.000602     3.0028      7.917   274.6088 1.6369e+02     7.1673      0.931      1.351     7.9703   999.8729 0.0000e+00
      0.975      0.074     6.7230     92.423     41.016  26.983441     3.0580      7.914   274.5417 1.5765e+02     7.0491      0.960      1.392     7.9318   999.8754 0.0000e+00
      0.990      0.059     6.8544     96.235     41.045  27.000603     3.0970      7.912   274.5047 1.5960e+02     7.0225      0.975      1.415     7.9101   999.8768 0.0000e+00
      0.995      0.043     7.0736     99.655     41.070  27.017765     3.1092      7.911   274.5919 1.5575e+02     7.0746      0.978      1.419     7.9007   999.8774 0.0000e+00
      0.995      0.029     7.3566    102.280     41.042  27.000605     3.1019      7.910   274.6502 1.5298e+02     7.0893      0.974      1.412     7.8954   999.8776 0.0000e+00
      0.998      0.021     7.6737    103.995     41.017  26.983457     3.0690      7.910   274.7789 1.5328e+02     7.0694      0.976      1.416     7.8913   999.8779 0.0000e+00
      1.006      0.016     8.0082    104.911     41.043  27.000774     3.0413      7.908   275.0298 1.5197e+02     7.0299      0.987      1.431     7.8891   999.8781 0.0000e+00
      1.014      0.015     8.3048    105.217     41.071  27.019652     3.0438      7.906   275.1028 1.4893e+02     6.9732      0.997      1.444     7.8911   999.8780 0.0000e+00
      1.019      0.015     8.5252    105.141     41.071  27.021368     3.0470      7.905   274.8868 1.4764e+02     6.9403      1.000      1.451     7.8927   999.8779 0.0000e+00
      1.019      0.015     8.6631    104.875     41.068  27.021523     2.9670      7.904   274.5694 1.5092e+02     6.8949      1.000      1.451     7.8915   999.8779 0.0000e+00
      1.019      0.016     8.7341    104.506     41.067  27.021538     2.8142      7.902   274.4481 1.5103e+02     6.8170      0.998      1.447     7.8905   999.8780 0.0000e+00
      1.022      0.021     8.7528    104.100     41.068  27.021539     2.7342      7.900   274.5393 1.4551e+02     6.7845      0.999      1.450     7.8918   999.8780 0.0000e+00
      1.027      0.028     8.7382    103.666     41.071  27.021540     2.7460      7.897   274.8113 1.4334e+02     6.7976      1.006      1.460     7.8943   999.8778 0.0000e+00
      1.036      0.038     8.7161    103.215     41.076  27.021540     2.8789      7.893   275.2417 1.4392e+02     7.0083      1.016      1.474     7.8968   999.8777 0.0000e+00
      1.048      0.047     8.6809    102.803     41.081  27.021541     3.1182      7.891   275.4417 1.4312e+02     7.4304      1.027      1.489     7.8983   999.8777 0.0000e+00
      1.062      0.053     8.6483    102.432     41.085  27.021549     3.2546      7.888   275.2512 1.3927e+02     7.6734      1.041      1.510     7.8975   999.8778 0.0000e+00
      1.078      0.058     8.6137    102.077     41.088  27.021638     3.2798      7.884   275.0891 1.3296e+02     7.7183      1.057      1.534     7.8943   999.8781 0.0000e+00
      1.094      0.058     8.5733    101.772     41.092  27.022612     3.2493      7.880   275.1158 1.3057e+02     7.7115      1.072      1.556     7.8904   999.8784 0.0000e+00
      1.110      0.054     8.5405    101.526     41.110  27.033324     3.1544      7.878   275.2299 1.2942e+02     7.6562      1.088      1.579     7.8863   999.8787 0.0000e+00
      1.127      0.048     8.5127    101.315     41.096  27.024268     3.0950      7.877   275.3503 1.2503e+02     7.6725      1.106      1.603     7.8825   999.8790 0.0000e+00
      1.141      0.042     8.4812    101.144     41.022  26.976553     3.1037      7.876   275.3663 1.2252e+02     7.7446      1.121      1.626     7.8802   999.8792 0.0000e+00
      1.149      0.035     8.4556    101.018     41.002  26.963969     3.1473      7.875   275.4239 1.2046e+02     7.7095      1.128      1.636     7.8788   999.8793 0.0000e+00
      1.153      0.029     8.4379    100.933     41.053  26.999014     3.1963      7.873   275.6165 1.1848e+02     7.5750      1.130      1.639     7.8774   999.8794 0.0000e+00
      1.157      0.024     8.4187    100.858     41.082  27.019606     3.2107      7.872   275.8020 1.2014e+02     7.4620      1.135      1.646     7.8767   999.8795 0.0000e+00
      1.164      0.020     8.4052    100.768     41.085  27.022613     3.2091      7.870   275.8600 1.2132e+02     7.4252      1.141      1.654     7.8777   999.8794 0.0000e+00
      1.171      0.017     8.3935    100.675     41.102  27.035370     3.2116      7.868   275.8022 1.2026e+02     7.4578      1.149      1.666     7.8796   999.8793 0.0000e+00
      1.176      0.016     8.3875    100.589     41.117  27.046957     3.1809      7.866   275.7915 1.1908e+02     7.5280      1.154      1.674     7.8814   999.8793 0.0000e+00
      1.178      0.016     8.3821    100.494     41.101  27.035825     3.1236      7.864   275.9021 1.1657e+02     7.6185      1.155      1.675     7.8832   999.8792 0.0000e+00
      1.180      0.019     8.3729    100.386     41.091  27.027660     3.0994      7.862   276.3652 1.1560e+02     7.6676      1.157      1.678     7.8851   999.8791 0.0000e+00
      1.183      0.028     8.3651    100.295     41.072  27.011678     3.1056      7.857   277.0890 1.1619e+02     7.6965      1.160      1.682     7.8872   999.8790 0.0000e+00
      1.187      0.045     8.3575    100.237     41.014  26.969471     3.1286      7.848   277.5123 1.1426e+02     7.7376      1.164      1.687     7.8890   999.8789 0.0000e+00
      1.195      0.070     8.3509    100.244     41.007  26.961454     3.1612      7.839   277.6981 1.1167e+02     7.7386      1.170      1.697     7.8893   999.8789 0.0000e+00
      1.210      0.095     8.3401    100.322     41.036  26.978193     3.1696      7.831   277.7863 1.0607e+02     7.7415      1.181      1.712     7.8862   999.8792 0.0000e+00
      1.240      0.116     8.3340    100.398     41.043  26.981520     3.1696      7.824   277.7185 9.7569e+01     7.7392      1.211      1.757     7.8810   999.8796 0.0000e+00
      1.284      0.128     8.3295    100.447     41.075  27.001678     3.2042      7.818   277.8245 8.9385e+01     7.5477      1.259      1.825     7.8758   999.8801 0.0000e+00
      1.330      0.127     8.3286    100.477     41.120  27.031578     3.2592      7.814   278.2074 8.1798e+01     7.1951      1.307      1.894     7.8719   999.8806 0.0000e+00
      1.372      0.113     8.3407    100.472     41.110  27.025813     3.2799      7.811   278.3904 7.6756e+01     6.9834      1.349      1.957     7.8697   999.8809 0.0000e+00
      1.402      0.088     8.3468    100.427     41.063  26.995416     3.2724      7.809   278.3161 7.4320e+01     6.9549      1.380      2.001     7.8678   999.8812 0.0000e+00
      1.417      0.060     8.3504    100.359     41.039  26.981277     3.2636      7.808   278.3413 7.3333e+01     6.8170      1.395      2.022     7.8674   999.8813 0.0000e+00
      1.422      0.033     8.3538    100.274     41.036  26.981759     3.2428      7.807   278.2651 7.2926e+01     6.4959      1.396      2.025     7.8681   999.8813 0.0000e+00
      1.422      0.011     8.3536    100.198     41.060  27.001244     3.2201      7.806   277.9976 7.2774e+01     6.2843      1.394      2.022     7.8678   999.8813 0.0000e+00
      1.420     -0.004     8.3488    100.160     41.094  27.026543     3.2059      7.804   277.9459 7.2648e+01     6.2573      1.392      2.019     7.8680   999.8812 0.0000e+00
      1.417     -0.013     8.3428    100.138     41.102  27.033870     3.1745      7.802   278.0700 7.2232e+01     6.3006      1.390      2.016     7.8703   999.8811 0.0000e+00
      1.413     -0.018     8.3348    100.125     41.090  27.026387     3.1360      7.800   278.1214 7.2495e+01     6.3485      1.387      2.011     7.8741   999.8809 0.0000e+00
      1.407     -0.020     8.3250    100.123     41.048  26.999516     3.1133      7.799   278.1380 7.3303e+01     6.3453      1.381      2.003     7.8787   999.8806 0.0000e+00
      1.400     -0.016     8.3233    100.125     40.992  26.962755     3.0988      7.795   278.2704 7.4816e+01     6.3275      1.374      1.993     7.8826   999.8804 0.0000e+00
      1.392     -0.006     8.3209    100.153     40.993  26.962585     3.0999      7.789   278.6039 7.6447e+01     6.3305      1.365      1.980     7.8842   999.8802 0.0000e+00
      1.386      0.013     8.3190    100.198     41.051  26.997459     3.1355      7.782   278.9862 7.6645e+01     6.5441      1.358      1.968     7.8848   999.8801 0.0000e+00
      1.385      0.040     8.3201    100.201     41.066  27.003736     3.2004      7.773   279.1078 7.7086e+01     6.9768      1.356      1.966     7.8862   999.8800 0.0000e+00
      1.395      0.072     8.3185    100.152     41.028  26.975024     3.2344      7.764   278.8696 7.6556e+01     7.2369      1.361      1.975     7.8870   999.8799 0.0000e+00
      1.420      0.102     8.3206    100.080     41.023  26.967531     3.2246      7.758   278.6005 7.2570e+01     7.2639      1.387      2.012     7.8849   999.8802 0.0000e+00
      1.457      0.125     8.3290     99.999     41.043  26.976581     3.2301      7.755   278.6071 6.7690e+01     7.3025      1.428      2.070     7.8812   999.8807 0.0000e+00
      1.501      0.138     8.3296     99.937     41.019  26.957554     3.2566      7.754   278.8640 6.3561e+01     7.4091      1.472      2.135     7.8768   999.8811 0.0000e+00
      1.546      0.137     8.3248     99.910     40.978  26.927809     3.2765      7.753   279.0390 5.9841e+01     7.4712      1.519      2.203     7.8724   999.8816 0.0000e+00
      1.586      0.123     8.3204     99.907     40.989  26.934156     3.2888      7.751   279.0023 5.6990e+01     7.4636      1.559      2.260     7.8675   999.8821 0.0000e+00
      1.617      0.102     8.3135     99.948     41.046  26.970846     3.3012      7.749   278.8505 5.5118e+01     7.4813      1.588      2.303     7.8615   999.8826 0.0000e+00
      1.639      0.081     8.3084    100.040     41.077  26.990756     3.3222      7.749   278.5800 5.4045e+01     7.5214      1.611      2.336     7.8569   999.8829 0.0000e+00
      1.652      0.063     8.3085    100.154     41.067  26.984549     3.3528      7.749   278.4856 5.3216e+01     7.5222      1.623      2.353     7.8542   999.8831 0.0000e+00
      1.658      0.050     8.3067    100.251     41.029  26.959242     3.3674      7.749   278.6554 5.2310e+01     7.5236      1.625      2.358     7.8529   999.8832 0.0000e+00
      1.665      0.044     8.3097    100.296     40.999  26.938555     3.4126      7.749   278.8268 5.1413e+01     7.5711      1.630      2.365     7.8524   999.8833 0.0000e+00
      1.676      0.041     8.3194    100.299     40.979  26.924762     3.5171      7.749   278.9233 5.0207e+01     7.6382      1.644      2.384     7.8522   999.8834 0.0000e+00
      1.690      0.041     8.3285    100.269     40.970  26.919358     3.5824      7.748   278.8750 4.8740e+01     7.6794      1.658      2.405     7.8529   999.8834 0.0000e+00
      1.703      0.039     8.3398    100.218     40.996  26.936661     3.5862      7.747   278.7586 4.7610e+01     7.6758      1.669      2.421     7.8527   999.8834 0.0000e+00
      1.714      0.034     8.3415    100.177     41.006  26.943633     3.4674      7.747   278.7201 4.6818e+01     7.4638      1.682      2.439     7.8507   999.8836 0.0000e+00
      1.722      0.028     8.3426    100.148     40.998  26.940216     3.2389      7.747   278.6688 4.6057e+01     7.0497      1.689      2.450     7.8500   999.8837 0.0000e+00
      1.727      0.024     8.3399    100.137     41.022  26.958784     3.1205      7.747   278.6539 4.5552e+01     6.8306      1.694      2.457     7.8505   999.8837 0.0000e+00
      1.731      0.026     8.3334    100.127     41.046  26.977814     3.1107      7.747   278.7979 4.5232e+01     6.8135      1.698      2.463     7.8510   999.8837 0.0000e+00
      1.732      0.034     8.3313    100.107     41.048  26.979971     3.1041      7.744   278.9472 4.4755e+01     6.7773      1.698      2.463     7.8518   999.8836 0.0000e+00
      1.736      0.047     8.3271    100.078     41.058  26.984860     3.1438      7.739   279.1697 4.3896e+01     6.8526      1.699      2.464     7.8526   999.8836 0.0000e+00
      1.748      0.062     8.3273    100.057     41.043  26.973481     3.2272      7.732   279.5090 4.2364e+01     7.0678      1.710      2.479     7.8558   999.8835 0.0000e+00
      1.770      0.075     8.3251    100.063     41.040  26.969273     3.2713      7.725   279.6937 4.0354e+01     7.2164      1.735      2.516     7.8619   999.8833 0.0000e+00
      1.797      0.083     8.3232    100.083     41.087  26.997432     3.2698      7.720   279.6822 3.8458e+01     7.2403      1.762      2.557     7.8634   999.8833 0.0000e+00
      1.825      0.083     8.3210    100.064     41.088  26.996716     3.2344      7.717   279.5425 3.6739e+01     7.0615      1.788      2.595     7.8603   999.8836 0.0000e+00
      1.853      0.076     8.3183     99.999     41.033  26.960619     3.1734      7.716   279.4666 3.5179e+01     6.7255      1.819      2.639     7.8589   999.8838 0.0000e+00
      1.873      0.067     8.3199     99.949     41.003  26.941647     3.1476      7.715   279.5382 3.4329e+01     6.5543      1.842      2.672     7.8559   999.8841 0.0000e+00
      1.882      0.059     8.3243     99.925     41.027  26.957662     3.1654      7.715   279.8923 3.4216e+01     6.5651      1.848      2.680     7.8516   999.8844 0.0000e+00
      1.886      0.054     8.3248     99.912     41.037  26.963926     3.2060      7.714   280.3935 3.4036e+01     6.6918      1.848      2.680     7.8500   999.8845 0.0000e+00
      1.896      0.052     8.3148     99.920     41.023  26.953937     3.2572      7.712   280.5214 3.3279e+01     6.9060      1.856      2.691     7.8495   999.8845 0.0000e+00
      1.913      0.053     8.3113     99.935     41.038  26.963787     3.2815      7.710   280.4920 3.2219e+01     7.0244      1.876      2.720     7.8511   999.8845 0.0000e+00
      1.933      0.059     8.3104     99.954     41.026  26.956119     3.2833      7.709   280.5538 3.1274e+01     7.0747      1.896      2.750     7.8526   999.8846 0.0000e+00
      1.949      0.068     8.3074     99.965     40.979  26.924673     3.2872      7.707   280.6665 3.0684e+01     7.2517      1.914      2.776     7.8518   999.8847 0.0000e+00
      1.961      0.076     8.3105     99.968     40.947  26.900798     3.2858      7.704   280.8225 3.0220e+01     7.5262      1.923      2.789     7.8506   999.8848 0.0000e+00
      1.976      0.082     8.3104     99.975     40.983  26.921222     3.2841      7.701   280.9780 2.9336e+01     7.6741      1.932      2.804     7.8504   999.8849 0.0000e+00
      2.000      0.087     8.3128     99.985     41.078  26.981279     3.2840      7.699   281.2550 2.8109e+01     7.6966      1.960      2.843     7.8514   999.8849 0.0000e+00
      2.030      0.094     8.3141     99.994     41.097  26.992490     3.2662      7.697   281.5911 2.6865e+01     7.6009      1.991      2.887     7.8509   999.8851 0.0000e+00
      2.058      0.104     8.3138     99.994     41.002  26.929879     3.2343      7.693   281.8581 2.5836e+01     7.3693      2.021      2.930     7.8464   999.8855 0.0000e+00
      2.083      0.115     8.3167    100.007     40.902  26.858704     3.2188      7.687   282.1610 2.5081e+01     7.2561      2.045      2.966     7.8421   999.8859 0.0000e+00
      2.105      0.125     8.3169    100.028     40.887  26.829815     3.2259      7.682   282.4136 2.4218e+01     7.3135      2.063      2.991     7.8394   999.8862 0.0000e+00
      2.133      0.132     8.3197    100.006     40.932  26.834339     3.2337      7.677   282.3307 2.2941e+01     7.3428      2.086      3.025     7.8379   999.8864 0.0000e+00
      2.174      0.135     8.3178     99.933     40.985  26.849932     3.2523      7.675   282.1917 2.1381e+01     7.3148      2.129      3.088     7.8380   999.8865 0.0000e+00
      2.222      0.137     8.3183     99.850     40.967  26.827995     3.2947      7.673   282.3674 1.9952e+01     7.3354      2.182      3.165     7.8386   999.8867 0.0000e+00
      2.263      0.137     8.3287     99.789     40.883  26.759420     3.3307      7.670   282.5615 1.9013e+01     7.4279      2.225      3.227     7.8132   999.8884 0.0000e+00
      2.292      0.133     8.3345     99.707     40.869  26.718690     3.3404      7.667   282.6464 1.8448e+01     7.4832      2.250      3.263     7.7720   999.8909 0.0000e+00
      2.317      0.125     8.3322     99.561     40.937  26.716168     3.2906      7.665   282.7057 1.7841e+01     7.4150      2.270      3.293     7.7495   999.8923 0.0000e+00
      2.346      0.116     8.3246     99.378     41.025  26.728876     3.1967      7.663   282.7624 1.7089e+01     7.2906      2.299      3.336     7.7415   999.8929 0.0000e+00
      2.378      0.111     8.3228     99.197     41.100  26.745408     3.1497      7.662   282.8157 1.6346e+01     7.2247      2.333      3.384     7.7355   999.8933 0.0000e+00
      2.411      0.109     8.3271     99.056     41.100  26.725683     3.1559      7.660   282.7474 1.5720e+01     7.2407      2.365      3.432     7.6947   999.8958 0.0000e+00
      2.440      0.109     8.3260     98.954     41.051  26.680706     3.1676      7.658   282.7109 1.5308e+01     7.3855      2.395      3.474     7.6268   999.8997 0.0000e+00
      2.462      0.107     8.3227     98.862     41.013  26.645692     3.1611      7.654   282.8044 1.5006e+01     7.5991      2.413      3.500     7.5676   999.9030 0.0000e+00
      2.485      0.104     8.3138     98.797     40.988  26.619539     3.1469      7.652   282.9329 1.4557e+01     7.6929      2.433      3.529     7.5291   999.9053 0.0000e+00
      2.513      0.102     8.3058     98.768     40.999  26.618263     3.1519      7.651   283.1452 1.4002e+01     7.7000      2.465      3.576     7.5085   999.9065 0.0000e+00
      2.543      0.102     8.3027     98.752     41.029  26.630250     3.1950      7.650   283.3063 1.3539e+01     7.6855      2.496      3.620     7.4937   999.9074 0.0000e+00
      2.569      0.098     8.2954     98.739     41.050  26.637589     3.2523      7.650   283.1600 1.3150e+01     7.6487      2.520      3.654     7.4819   999.9082 0.0000e+00
      2.594      0.088     8.2920     98.716     41.065  26.643547     3.2728      7.649   282.9247 1.2757e+01     7.6491      2.543      3.689     7.4709   999.9088 0.0000e+00
      2.619      0.073     8.2934     98.672     41.059  26.638827     3.2690      7.649   282.9564 1.2384e+01     7.6570      2.569      3.726     7.4600   999.9095 0.0000e+00
      2.641      0.061     8.2937     98.637     41.063  26.643967     3.2847      7.647   283.1995 1.2151e+01     7.5470      2.594      3.762     7.4506   999.9102 0.0000e+00
      2.653      0.058     8.2944     98.614     41.054  26.642255     3.3147      7.643   283.5409 1.2161e+01     7.3357      2.606      3.780     7.4438   999.9106 0.0000e+00
      2.653      0.070     8.2947     98.563     41.016  26.618135     3.3294      7.638   283.9011 1.2279e+01     7.1988      2.603      3.775     7.4380   999.9109 0.0000e+00
      2.654      0.095     8.2898     98.478     41.005  26.606110     3.3407      7.633   284.1126 1.2185e+01     7.2024      2.597      3.766     7.4355   999.9110 0.0000e+00
      2.671      0.130     8.2851     98.365     41.043  26.623738     3.3479      7.628   284.1191 1.1656e+01     7.2486      2.609      3.784     7.4402   999.9108 0.0000e+00
      2.713      0.164     8.2845     98.226     41.080  26.640938     3.3295      7.626   284.0663 1.0755e+01     7.3313      2.652      3.847     7.4485   999.9106 0.0000e+00
      2.776      0.189     8.2791     98.121     41.062  26.623729     3.2997      7.627   283.9899 9.7095e+00     7.4497      2.719      3.943     7.4493   999.9109 0.0000e+00
      2.849      0.197     8.2733     98.079     41.042  26.605997     3.2747      7.628   283.8842 8.7601e+00     7.4670      2.796      4.055     7.4406   999.9117 0.0000e+00
      2.915      0.186     8.2670     98.068     41.063  26.616871     3.2690      7.629   283.8211 8.0940e+00     7.4091      2.866      4.157     7.4317   999.9125 0.0000e+00
      2.960      0.161     8.2538     98.083     41.083  26.628313     3.2998      7.630   283.7427 7.7140e+00     7.1757      2.910      4.220     7.4239   999.9131 0.0000e+00
      2.989      0.133     8.2452     98.147     41.066  26.617449     3.3353      7.630   283.8826 7.4661e+00     6.7421      2.934      4.255     7.4164   999.9136 0.0000e+00
      3.009      0.113     8.2451     98.250     41.057  26.612405     3.3425      7.627   284.3945 7.2499e+00     6.4923      2.951      4.280     7.4109   999.9140 0.0000e+00
      3.026      0.112     8.2448     98.350     41.085  26.630766     3.3530      7.621   284.8558 7.0437e+00     6.5152      2.967      4.302     7.4070   999.9143 0.0000e+00
      3.044      0.129     8.2452     98.421     41.114  26.649120     3.4878      7.616   284.9861 6.7973e+00     6.7239      2.982      4.325     7.4058   999.9144 0.0000e+00
      3.070      0.154     8.2506     98.470     41.107  26.643977     3.7247      7.613   284.9373 6.4279e+00     7.0496      3.002      4.355     7.4060   999.9145 0.0000e+00
      3.115      0.178     8.2611     98.501     41.089  26.632035     3.8407      7.612   284.8679 5.8772e+00     7.2087      3.045      4.415     7.4069   999.9146 0.0000e+00
      3.180      0.196     8.2700     98.511     41.088  26.631620     3.8245      7.611   284.8353 5.2529e+00     7.1732      3.118      4.521     7.4080   999.9149 0.0000e+00
      3.248      0.204     8.2755     98.483     41.099  26.638956     3.6591      7.610   284.8868 4.7742e+00     7.1119      3.192      4.630     7.4071   999.9154 0.0000e+00
      3.304      0.199     8.2801     98.439     41.127  26.657290     3.3746      7.610   284.9747 4.4444e+00     7.0570      3.242      4.702     7.4060   999.9157 0.0000e+00
      3.352      0.184     8.2820     98.412     41.137  26.662962     3.2290      7.609   285.0381 4.1537e+00     7.0349      3.288      4.767     7.4060   999.9159 0.0000e+00
      3.395      0.162     8.2845     98.392     41.108  26.644086     3.2167      7.608   285.1364 3.9265e+00     7.0079      3.333      4.834     7.4066   999.9161 0.0000e+00
      3.430      0.139     8.2806     98.361     41.070  26.619391     3.2259      7.608   285.2174 3.7584e+00     6.8615      3.365      4.881     7.4069   999.9162 0.0000e+00
      3.461      0.119     8.2757     98.322     41.068  26.618151     3.2704      7.608   285.2425 3.6063e+00     6.6412      3.395      4.924     7.4065   999.9164 0.0000e+00
      3.490      0.098     8.2742     98.295     41.084  26.629100     3.3216      7.608   285.2683 3.4823e+00     6.5069      3.425      4.968     7.4059   999.9166 0.0000e+00
      3.515      0.078     8.2733     98.260     41.075  26.624886     3.3422      7.608   285.2707 3.3741e+00     6.4830      3.449      5.002     7.4054   999.9167 0.0000e+00
      3.535      0.060     8.2709     98.198     41.081  26.630644     3.3453      7.608   285.3573 3.2938e+00     6.5495      3.469      5.033     7.4054   999.9168 0.0000e+00
      3.547      0.046     8.2660     98.129     41.086  26.635277     3.3423      7.607   285.5416 3.2653e+00     6.6231      3.481      5.050     7.4058   999.9168 0.0000e+00
      3.550      0.036     8.2650     98.082     41.056  26.617460     3.3403      7.607   285.6056 3.2585e+00     6.6190      3.482      5.049     7.4064   999.9168 0.0000e+00
      3.551      0.033     8.2623     98.047     41.036  26.605557     3.3393      7.609   285.6149 3.2440e+00     6.5981      3.481      5.048     7.4082   999.9167 0.0000e+00
      3.555      0.037     8.2559     98.015     41.056  26.618244     3.3378      7.610   285.7403 3.2030e+00     6.6001      3.484      5.054     7.4109   999.9166 0.0000e+00
      3.565      0.051     8.2478     97.990     41.097  26.643970     3.3913      7.609   286.0039 3.1320e+00     6.6431      3.493      5.067     7.4131   999.9165 0.0000e+00
      3.580      0.075     8.2448     97.962     41.127  26.662837     3.4843      7.604   286.3925 3.0505e+00     6.7576      3.510      5.091     7.4145   999.9165 0.0000e+00
      3.597      0.105     8.2421     97.927     41.118  26.656021     3.5254      7.597   286.6540 2.9609e+00     6.8370      3.527      5.115     7.4152   999.9165 0.0000e+00
      3.621      0.132     8.2387     97.891     41.071  26.624991     3.5247      7.592   286.6697 2.8267e+00     6.8164      3.545      5.142     7.4152   999.9166 0.0000e+00
      3.659      0.151     8.2374     97.876     41.041  26.604876     3.5365      7.591   286.5824 2.6225e+00     6.8363      3.580      5.192     7.4145   999.9169 0.0000e+00
      3.716      0.160     8.2353     97.903     41.038  26.603156     3.5635      7.591   286.4592 2.3836e+00     6.9136      3.641      5.281     7.4138   999.9172 0.0000e+00
      3.776      0.159     8.2327     97.969     41.039  26.604196     3.5826      7.592   286.3844 2.1913e+00     6.9651      3.709      5.380     7.4118   999.9176 0.0000e+00
      3.822      0.151     8.2292     98.050     41.061  26.617441     3.5856      7.592   286.4523 2.0855e+00     6.9996      3.755      5.445     7.4106   999.9179 0.0000e+00
      3.851      0.139     8.2271     98.135     41.091  26.636411     3.5472      7.592   286.5053 2.0323e+00     6.9703      3.779      5.481     7.4112   999.9180 0.0000e+00
      3.872      0.128     8.2288     98.206     41.103  26.643228     3.4828      7.591   286.5098 1.9869e+00     6.8733      3.797      5.506     7.4117   999.9180 0.0000e+00
      3.895      0.124     8.2362     98.251     41.093  26.636423     3.4657      7.589   286.5925 1.9075e+00     6.8096      3.817      5.534     7.4115   999.9181 0.0000e+00
      3.925      0.130     8.2426     98.251     41.065  26.617565     3.4879      7.586   286.6450 1.8064e+00     6.7902      3.845      5.577     7.4104   999.9183 0.0000e+00
      3.962      0.141     8.2512     98.200     41.048  26.605559     3.4918      7.585   286.8009 1.7152e+00     6.7697      3.884      5.633     7.4094   999.9186 0.0000e+00
      4.002      0.150     8.2574     98.146     41.069  26.618144     3.4340      7.585   287.1009 1.6140e+00     6.8893      3.924      5.691     7.4090   999.9188 0.0000e+00
      4.046      0.155     8.2612     98.116     41.108  26.642840     3.3442      7.584   287.2609 1.5149e+00     7.1551      3.966      5.753     7.4086   999.9190 0.0000e+00
      4.091      0.153     8.2634     98.094     41.121  26.650370     3.2983      7.582   287.1869 1.4318e+00     7.2971      4.013      5.821     7.4077   999.9193 0.0000e+00
      4.131      0.147     8.2560     98.088     41.115  26.645754     3.2958      7.581   286.8944 1.3659e+00     7.2948      4.054      5.881     7.4063   999.9196 0.0000e+00
      4.165      0.139     8.2512     98.116     41.123  26.650474     3.3136      7.581   286.7354 1.3128e+00     7.1602      4.084      5.925     7.4049   999.9198 0.0000e+00
      4.198      0.132     8.2500     98.155     41.114  26.643989     3.3316      7.581   286.9848 1.2529e+00     6.9150      4.117      5.971     7.4040   999.9200 0.0000e+00
      4.230      0.127     8.2482     98.177     41.095  26.630780     3.3326      7.580   287.3292 1.1945e+00     6.7876      4.152      6.020     7.4033   999.9202 0.0000e+00
      4.259      0.126     8.2463     98.164     41.076  26.617657     3.3416      7.579   287.4574 1.1378e+00     6.7662      4.177      6.058     7.4023   999.9204 0.0000e+00
      4.287      0.124     8.2500     98.104     41.068  26.612209     3.4237      7.578   287.3306 1.0775e+00     6.7878      4.201      6.094     7.4017   999.9205 0.0000e+00
      4.321      0.121     8.2548     98.038     41.094  26.628351     3.5533      7.578   287.1721 1.0090e+00     6.8846      4.235      6.143     7.4011   999.9207 0.0000e+00
      4.359      0.121     8.2562     97.959     41.085  26.622487     3.6173      7.577   287.2623 9.4943e-01     6.9538      4.276      6.202     7.4000   999.9210 0.0000e+00
      4.392      0.124     8.2578     97.855     41.058  26.604754     3.6342      7.575   287.5606 9.2271e-01     6.9688      4.310      6.253     7.3988   999.9212 0.0000e+00
      4.417      0.131     8.2493     97.773     41.058  26.604281     3.6710      7.572   287.8526 8.9471e-01     7.0328      4.331      6.282     7.3978   999.9213 0.0000e+00
      4.441      0.140     8.2449     97.723     41.079  26.616771     3.7153      7.570   288.0401 8.5166e-01     7.1388      4.351      6.312     7.3974   999.9215 0.0000e+00
      4.474      0.150     8.2403     97.700     41.099  26.628874     3.7450      7.567   288.1073 8.0866e-01     7.2013      4.384      6.359     7.3971   999.9216 0.0000e+00
      4.518      0.159     8.2277     97.700     41.092  26.623733     3.7605      7.565   288.1492 7.5610e-01     7.2318      4.428      6.422     7.3972   999.9218 0.0000e+00
      4.569      0.166     8.2219     97.693     41.085  26.618051     3.7122      7.565   288.2882 6.9080e-01     7.2443      4.480      6.498     7.3971   999.9221 0.0000e+00
      4.621      0.167     8.2180     97.659     41.095  26.623610     3.6028      7.564   288.4105 6.3342e-01     7.2226      4.534      6.576     7.3958   999.9224 0.0000e+00
      4.665      0.163     8.2158     97.638     41.102  26.627503     3.5310      7.564   288.4238 6.0331e-01     7.1990      4.581      6.643     7.3943   999.9227 0.0000e+00
      4.700      0.155     8.2173     97.643     41.062  26.601673     3.5118      7.565   288.3629 5.7896e-01     7.2209      4.610      6.686     7.3931   999.9229 0.0000e+00
      4.733      0.146     8.2186     97.663     41.006  26.565073     3.5087      7.565   288.2768 5.3706e-01     7.2246      4.637      6.726     7.3919   999.9231 0.0000e+00
      4.769      0.140     8.2136     97.713     41.007  26.565640     3.4852      7.566   288.3288 5.0106e-01     7.1130      4.677      6.784     7.3909   999.9234 0.0000e+00
      4.806      0.136     8.2108     97.766     41.074  26.608532     3.4350      7.566   288.5622 4.8834e-01     6.9854      4.715      6.837     7.3906   999.9236 0.0000e+00
      4.840      0.136     8.2138     97.807     41.123  26.639563     3.3966      7.565   288.8619 4.7343e-01     6.9589      4.745      6.882     7.3902   999.9237 0.0000e+00
      4.875      0.137     8.2126     97.856     41.099  26.623621     3.3935      7.563   289.1130 4.4134e-01     6.9895      4.781      6.935     7.3898   999.9239 0.0000e+00
      4.909      0.139     8.2193     97.880     41.073  26.606107     3.4234      7.561   289.1880 4.0608e-01     6.9955      4.816      6.986     7.3900   999.9241 0.0000e+00
      4.941      0.139     8.2246     97.862     41.092  26.618135     3.4546      7.559   289.1672 3.8086e-01     6.9664      4.843      7.024     7.3895   999.9242 0.0000e+00
      4.977      0.137     8.2255     97.829     41.129  26.642152     3.4674      7.558   289.2056 3.6081e-01     6.9648      4.877      7.075     7.3885   999.9245 0.0000e+00
      5.017      0.132     8.2329     97.814     41.129  26.642720     3.4747      7.558   289.2221 3.3404e-01     6.9765      4.921      7.137     7.3876   999.9247 0.0000e+00
      5.056      0.127     8.2351     97.816     41.101  26.625005     3.4651      7.558   289.1941 3.0709e-01     6.9767      4.960      7.194     7.3866   999.9250 0.0000e+00
      5.089      0.123     8.2329     97.814     41.090  26.618294     3.4294      7.558   289.2122 2.9361e-01     7.0002      4.995      7.243     7.3863   999.9252 0.0000e+00
      5.113      0.119     8.2282     97.800     41.101  26.625015     3.3983      7.558   289.2689 2.8749e-01     6.9987      5.016      7.274     7.3870   999.9252 0.0000e+00
      5.134      0.115     8.2274     97.797     41.129  26.642834     3.3913      7.557   289.3634 2.8377e-01     6.9573      5.031      7.297     7.3878   999.9253 0.0000e+00
      5.163      0.115     8.2283     97.820     41.130  26.643400     3.3976      7.557   289.4076 2.7666e-01     6.9593      5.061      7.340     7.3881   999.9254 0.0000e+00
      5.198      0.120     8.2282     97.840     41.112  26.631855     3.3961      7.557   289.3732 2.5528e-01     6.9903      5.098      7.395     7.3885   999.9256 0.0000e+00
      5.230      0.129     8.2266     97.855     41.110  26.630135     3.3906      7.555   289.4638 2.3490e-01     6.9715      5.130      7.440     7.3884   999.9257 0.0000e+00
      5.260      0.138     8.2245     97.883     41.098  26.622604     3.3918      7.553   289.6429 2.2384e-01     6.9616      5.157      7.479     7.3881   999.9259 0.0000e+00
      5.294      0.145     8.2293     97.928     41.070  26.604245     3.4017      7.551   289.8181 2.0578e-01     7.1657      5.189      7.526     7.3877   999.9261 0.0000e+00
      5.333      0.150     8.2302     97.991     41.061  26.598485     3.4157      7.549   289.9476 1.8168e-01     7.5380      5.229      7.585     7.3873   999.9262 0.0000e+00
      5.375      0.154     8.2308     98.065     41.088  26.616412     3.4134      7.546   289.9176 1.6182e-01     7.7272      5.272      7.646     7.3873   999.9264 0.0000e+00
      5.418      0.153     8.2334     98.138     41.110  26.630660     3.4001      7.545   289.8005 1.4338e-01     7.7161      5.313      7.706     7.3874   999.9266 0.0000e+00
      5.460      0.147     8.2371     98.216     41.130  26.643869     3.3934      7.545   289.7350 1.3220e-01     7.6994      5.354      7.765     7.3871   999.9268 0.0000e+00
      5.500      0.139     8.2423     98.288     41.139  26.649230     3.4094      7.545   289.9008 1.3520e-01     7.5570      5.395      7.824     7.3873   999.9270 0.0000e+00
      5.535      0.137     8.2494     98.342     41.113  26.632030     3.4466      7.543   290.2554 1.3884e-01     7.2729      5.432      7.878     7.3880   999.9271 0.0000e+00
      5.560      0.142     8.2548     98.392     41.106  26.626245     3.4616      7.539   290.5810 1.3277e-01     7.0819      5.455      7.911     7.3879   999.9273 0.0000e+00
      5.583      0.156     8.2616     98.442     41.132  26.642721     3.4524      7.536   290.8274 1.2584e-01     7.0176      5.470      7.934     7.3878   999.9274 0.0000e+00
      5.618      0.174     8.2690     98.472     41.129  26.640896     3.4827      7.536   290.9114 1.2386e-01     7.1838      5.503      7.980     7.3878   999.9276 0.0000e+00
      5.670      0.195     8.2722     98.457     41.073  26.604182     3.5510      7.534   290.8223 1.2367e-01     7.5184      5.556      8.059     7.3869   999.9279 0.0000e+00
      5.734      0.215     8.2771     98.397     41.036  26.579485     3.5849      7.532   290.7818 1.2363e-01     7.6557      5.624      8.157     7.3855   999.9282 0.0000e+00
      5.798      0.229     8.2815     98.315     41.063  26.596055     3.5804      7.530   290.9382 1.2367e-01     7.6308      5.689      8.250     7.3851   999.9286 0.0000e+00
      5.859      0.234     8.2855     98.226     41.092  26.614198     3.5740      7.528   291.1644 1.2372e-01     7.4801      5.745      8.332     7.3858   999.9288 0.0000e+00
      5.920      0.231     8.2839     98.126     41.083  26.608515     3.5772      7.527   291.2798 1.2371e-01     7.2092      5.806      8.421     7.3853   999.9291 0.0000e+00
      5.980      0.223     8.2786     98.015     41.057  26.590793     3.5847      7.526   291.3011 1.2370e-01     7.0431      5.868      8.511     7.3837   999.9295 0.0000e+00
      6.035      0.214     8.2707     97.910     41.056  26.590244     3.5867      7.527   291.3366 1.2365e-01     6.9797      5.918      8.582     7.3824   999.9298 0.0000e+00
      6.089      0.207     8.2643     97.827     41.074  26.601875     3.5747      7.527   291.4499 1.2367e-01     7.0983      5.969      8.658     7.3822   999.9301 0.0000e+00
      6.141      0.204     8.2558     97.769     41.079  26.604540     3.5529      7.524   291.6384 1.2379e-01     7.3955      6.025      8.739     7.3818   999.9304 0.0000e+00
      6.187      0.207     8.2460     97.735     41.107  26.622463     3.5397      7.521   291.8958 1.2385e-01     7.5240      6.069      8.802     7.3809   999.9306 0.0000e+00
      6.232      0.213     8.2369     97.738     41.116  26.628239     3.5366      7.520   292.0670 1.2384e-01     7.4725      6.108      8.859     7.3807   999.9308 0.0000e+00
      6.286      0.219     8.2291     97.770     41.089  26.610937     3.5151      7.519   291.9875 1.2381e-01     7.3301      6.159      8.933     7.3806   999.9311 0.0000e+00
      6.349      0.220     8.2257     97.830     41.078  26.603596     3.4790      7.518   291.8810 1.2374e-01     7.1465      6.225      9.028     7.3803   999.9314 0.0000e+00
      6.414      0.215     8.2209     97.915     41.077  26.602934     3.4733      7.518   291.8971 1.2367e-01     7.0878      6.292      9.124     7.3801   999.9318 0.0000e+00
      6.475      0.202     8.2226     97.996     41.077  26.602926     3.4718      7.518   292.0099 1.2367e-01     7.0467      6.352      9.211     7.3799   999.9321 0.0000e+00
      6.530      0.188     8.2251     98.041     41.078  26.603493     3.4617      7.518   292.2126 1.2366e-01     6.9773      6.409      9.294     7.3797   999.9324 0.0000e+00
      6.571      0.178     8.2299     98.041     41.088  26.609784     3.5324      7.517   292.2835 1.2366e-01     6.9693      6.450      9.356     7.3796   999.9326 0.0000e+00
      6.600      0.175     8.2381     98.013     41.097  26.615553     3.6670      7.515   292.1789 1.2372e-01     6.9824      6.472      9.387     7.3798   999.9327 0.0000e+00
      6.630      0.178     8.2459     97.978     41.089  26.609794     3.7459      7.514   292.1529 1.2376e-01     7.0053      6.494      9.417     7.3800   999.9327 0.0000e+00
      6.676      0.184     8.2503     97.948     41.080  26.603606     3.7584      7.514   292.2259 1.2376e-01     7.0165      6.541      9.486     7.3800   999.9330 0.0000e+00
      6.737      0.193     8.2494     97.907     41.081  26.604174     3.6799      7.514   292.3743 1.2375e-01     6.9872      6.609      9.586     7.3795   999.9333 0.0000e+00
      6.798      0.199     8.2468     97.850     41.100  26.616654     3.5325      7.513   292.5708 1.2377e-01     6.9781      6.671      9.676     7.3792   999.9337 0.0000e+00
      6.851      0.199     8.2428     97.804     41.117  26.627614     3.4677      7.513   292.6220 1.2379e-01     7.0047      6.719      9.745     7.3789   999.9339 0.0000e+00
      6.898      0.194     8.2415     97.773     41.090  26.609796     3.4780      7.511   292.3907 1.2375e-01     6.9809      6.765      9.811     7.3787   999.9341 0.0000e+00
      6.943      0.189     8.2387     97.756     41.061  26.591549     3.4656      7.509   292.0974 1.2373e-01     6.9527      6.811      9.878     7.3786   999.9344 0.0000e+00
      6.986      0.187     8.2317     97.747     41.070  26.597326     3.4307      7.508   292.0873 1.2375e-01     6.9920      6.852      9.937     7.3785   999.9346 0.0000e+00
      7.031      0.186     8.2289     97.725     41.100  26.616208     3.4113      7.508   292.1826 1.2375e-01     7.0300      6.894      9.998     7.3785   999.9348 0.0000e+00
      7.081      0.184     8.2262     97.702     41.120  26.629512     3.4130      7.508   292.2169 1.2373e-01     7.0518      6.943     10.069     7.3784   999.9350 0.0000e+00
      7.135      0.179     8.2240     97.708     41.123  26.631288     3.4083      7.508   292.2447 1.2372e-01     7.0585      6.999     10.151     7.3784   999.9353 0.0000e+00
      7.185      0.172     8.2254     97.755     41.133  26.637680     3.3970      7.509   292.1745 1.2374e-01     7.0120      7.050     10.225     7.3785   999.9355 0.0000e+00
      7.226      0.164     8.2222     97.801     41.141  26.643352     3.3984      7.509   292.0564 1.2378e-01     6.9810      7.088     10.280     7.3783   999.9357 0.0000e+00
      7.263      0.158     8.2198     97.833     41.130  26.636432     3.4088      7.509   292.1074 1.2376e-01     7.0446      7.121     10.329     7.3783   999.9359 0.0000e+00
      7.298      0.156     8.2187     97.882     41.101  26.617452     3.4352      7.508   292.2749 1.2370e-01     7.0928      7.157     10.381     7.3782   999.9361 0.0000e+00
      7.333      0.159     8.2252     97.926     41.081  26.604196     3.4747      7.507   292.3606 1.2368e-01     7.0391      7.191     10.429     7.3783   999.9362 0.0000e+00
      7.372      0.166     8.2303     97.952     41.079  26.603044     3.5051      7.505   292.4551 1.2373e-01     7.0188      7.227     10.481     7.3786   999.9364 0.0000e+00
      7.417      0.174     8.2292     97.969     41.080  26.603516     3.5260      7.504   292.6441 1.2381e-01     7.0766      7.272     10.547     7.3788   999.9366 0.0000e+00
      7.467      0.183     8.2364     97.969     41.090  26.609902     3.5278      7.503   292.9247 1.2380e-01     7.0824      7.323     10.621     7.3789   999.9368 0.0000e+00
      7.515      0.189     8.2397     97.955     41.100  26.616813     3.5440      7.502   293.1802 1.2376e-01     7.0238      7.370     10.689     7.3787   999.9371 0.0000e+00
      7.563      0.191     8.2413     97.951     41.111  26.623629     3.6008      7.502   293.1520 1.2379e-01     6.9908      7.415     10.754     7.3786   999.9373 0.0000e+00
      7.613      0.190     8.2435     97.964     41.119  26.628873     3.6427      7.502   293.0147 1.2379e-01     7.0111      7.466     10.829     7.3787   999.9375 0.0000e+00
      7.664      0.187     8.2432     97.969     41.101  26.616771     3.6517      7.502   292.9822 1.2374e-01     7.0398      7.518     10.904     7.3788   999.9378 0.0000e+00
      7.712      0.184     8.2414     97.972     41.081  26.604187     3.6220      7.501   292.9303 1.2370e-01     7.0756      7.564     10.970     7.3789   999.9380 0.0000e+00
      7.757      0.181     8.2399     97.967     41.080  26.603611     3.5705      7.501   292.9903 1.2373e-01     7.1491      7.608     11.034     7.3787   999.9383 0.0000e+00
      7.801      0.178     8.2436     97.959     41.090  26.609808     3.5480      7.501   293.2780 1.2376e-01     7.2067      7.650     11.095     7.3786   999.9385 0.0000e+00
      7.846      0.176     8.2424     97.976     41.099  26.615671     3.5417      7.500   293.5686 1.2376e-01     7.2477      7.694     11.159     7.3786   999.9386 0.0000e+00
      7.890      0.176     8.2434     98.006     41.091  26.611056     3.5726      7.499   293.6651 1.2374e-01     7.2187      7.739     11.223     7.3786   999.9388 0.0000e+00
      7.935      0.176     8.2434     98.028     41.100  26.617452     3.6531      7.500   293.6699 1.2376e-01     7.0537      7.780     11.284     7.3786   999.9391 0.0000e+00
      7.980      0.175     8.2402     98.048     41.119  26.629564     3.6995      7.500   293.7135 1.2386e-01     6.9567      7.825     11.349     7.3786   999.9393 0.0000e+00
      8.027      0.173     8.2433     98.072     41.120  26.630613     3.7004      7.499   293.6760 1.2391e-01     6.9958      7.873     11.418     7.3789   999.9395 0.0000e+00
      8.072      0.172     8.2460     98.082     41.119  26.630133     3.6889      7.498   293.6457 1.2386e-01     7.0348      7.918     11.483     7.3791   999.9397 0.0000e+00
      8.113      0.169     8.2480     98.064     41.109  26.623745     3.6649      7.497   293.8642 1.2384e-01     7.0349      7.957     11.541     7.3795   999.9399 0.0000e+00
      8.154      0.167     8.2486     98.023     41.098  26.616824     3.6442      7.497   294.1667 1.2381e-01     6.9982      7.996     11.597     7.3798   999.9401 0.0000e+00
      8.197      0.167     8.2517     97.969     41.087  26.609903     3.6292      7.496   294.3786 1.2373e-01     6.9835      8.038     11.659     7.3798   999.9402 0.0000e+00
      8.240      0.172     8.2529     97.913     41.077  26.603508     3.6137      7.493   294.5326 1.2373e-01     7.0540      8.082     11.723     7.3800   999.9404 0.0000e+00
      8.280      0.177     8.2513     97.864     41.076  26.602941     3.5952      7.492   294.5661 1.2373e-01     7.1290      8.121     11.778     7.3802   999.9406 0.0000e+00
      8.322      0.179     8.2474     97.831     41.076  26.603043     3.5797      7.494   294.5257 1.2371e-01     7.1044      8.157     11.830     7.3804   999.9408 0.0000e+00
      8.372      0.179     8.2422     97.822     41.079  26.604746     3.5821      7.495   294.4744 1.2376e-01     7.1171      8.209     11.905     7.3806   999.9410 0.0000e+00
      8.427      0.178     8.2376     97.842     41.109  26.623528     3.5901      7.494   294.4616 1.2377e-01     7.2495      8.269     11.993     7.3806   999.9412 0.0000e+00
      8.475      0.177     8.2329     97.869     41.134  26.639800     3.6500      7.493   294.5428 1.2378e-01     7.2963      8.314     12.059     7.3806   999.9415 0.0000e+00
      8.514      0.174     8.2303     97.881     41.090  26.611151     3.7684      7.493   294.6829 1.2374e-01     7.2243      8.349     12.110     7.3804   999.9417 0.0000e+00
      8.553      0.169     8.2287     97.893     41.064  26.594364     3.8249      7.493   294.8639 1.2366e-01     7.1982      8.387     12.164     7.3803   999.9419 0.0000e+00
      8.595      0.164     8.2315     97.908     41.114  26.627164     3.8220      7.492   294.9239 1.2368e-01     7.2426      8.428     12.225     7.3801   999.9421 0.0000e+00
      8.640      0.161     8.2350     97.906     41.114  26.627060     3.7680      7.492   294.8924 1.2372e-01     7.2361      8.474     12.290     7.3798   999.9424 0.0000e+00
      8.684      0.160     8.2350     97.906     41.062  26.593107     3.6500      7.492   294.9144 1.2372e-01     7.1203      8.517     12.353     7.3797   999.9426 0.0000e+00
      8.724      0.159     8.2355     97.921     41.068  26.597309     3.5824      7.491   294.7586 1.2372e-01     7.0221      8.556     12.410     7.3798   999.9427 0.0000e+00
      8.762      0.156     8.2387     97.932     41.094  26.614421     3.5829      7.490   294.4715 1.2369e-01     6.9991      8.592     12.462     7.3798   999.9429 0.0000e+00
      8.799      0.151     8.2371     97.941     41.087  26.609676     3.6124      7.489   294.3685 1.2366e-01     7.0386      8.628     12.513     7.3802   999.9431 0.0000e+00
      8.839      0.148     8.2358     97.961     41.077  26.603379     3.6708      7.489   294.5462 1.2368e-01     7.1386      8.667     12.571     7.3805   999.9432 0.0000e+00
      8.879      0.150     8.2391     97.980     41.074  26.601725     3.7087      7.488   294.8996 1.2375e-01     7.1930      8.709     12.631     7.3806   999.9435 0.0000e+00
      8.915      0.156     8.2393     97.983     41.055  26.589672     3.7148      7.486   295.1133 1.2379e-01     7.2051      8.746     12.684     7.3808   999.9436 0.0000e+00
      8.948      0.166     8.2392     97.967     41.047  26.584538     3.7699      7.484   295.0644 1.2379e-01     7.2845      8.773     12.724     7.3810   999.9437 0.0000e+00
      8.985      0.178     8.2419     97.946     41.076  26.603088     3.8806      7.483   294.9112 1.2377e-01     7.3992      8.806     12.772     7.3809   999.9439 0.0000e+00
      9.035      0.193     8.2437     97.935     41.108  26.623632     3.9436      7.481   294.8093 1.2373e-01     7.4455      8.857     12.846     7.3810   999.9441 0.0000e+00
      9.092      0.210     8.2442     97.925     41.138  26.642604     3.9433      7.477   294.6927 1.2370e-01     7.4173      8.917     12.932     7.3812   999.9444 0.0000e+00
      9.148      0.224     8.2423     97.925     41.137  26.642142     3.9371      7.477   294.5339 1.2369e-01     7.3206      8.971     13.012     7.3812   999.9447 0.0000e+00
      9.207      0.230     8.2396     97.975     41.099  26.618043     3.9463      7.478   294.4382 1.2370e-01     7.1611      9.026     13.092     7.3808   999.9451 0.0000e+00
      9.271      0.225     8.2399     98.059     41.079  26.604997     3.9509      7.480   294.3960 1.2370e-01     7.0297      9.091     13.186     7.3803   999.9453 0.0000e+00
      9.335      0.213     8.2391     98.130     41.088  26.611289     3.9409      7.480   294.1964 1.2368e-01     6.9777      9.157     13.281     7.3801   999.9457 0.0000e+00
      9.393      0.197     8.2367     98.175     41.118  26.630671     3.9293      7.480   293.7452 1.2373e-01     6.9905      9.216     13.366     7.3804   999.9460 0.0000e+00
      9.441      0.177     8.2411     98.183     41.145  26.649012     3.8715      7.482   293.4146 1.2377e-01     7.0209      9.263     13.435     7.3810   999.9461 0.0000e+00
      9.478      0.152     8.2513     98.168     41.135  26.642720     3.7713      7.483   293.2960 1.2373e-01     7.0507      9.297     13.484     7.3810   999.9463 0.0000e+00
      9.512      0.124     8.2557     98.147     41.096  26.618033     3.7142      7.483   293.1716 1.2371e-01     7.0551      9.327     13.527     7.3811   999.9464 0.0000e+00
      9.544      0.096     8.2611     98.091     41.074  26.604305     3.7017      7.484   293.1156 1.2375e-01     6.9756      9.360     13.578     7.3815   999.9466 0.0000e+00
      9.570      0.070     8.2613     98.014     41.072  26.603624     3.7157      7.486   293.1347 1.2377e-01     6.8107      9.391     13.621     7.3819   999.9467 0.0000e+00
      9.583      0.046     8.2576     97.948     41.082  26.609803     3.7531      7.487   293.2310 1.2380e-01     6.6017      9.402     13.636     7.3827   999.9467 0.0000e+00
      9.586      0.024     8.2590     97.885     41.091  26.615570     3.7726      7.489   293.4200 1.2377e-01     6.4797      9.401     13.635     7.3837   999.9466 0.0000e+00
      9.586      0.006     8.2524     97.792     41.082  26.609915     3.7693      7.490   293.4415 1.2366e-01     6.5154      9.402     13.636     7.3843   999.9466 0.0000e+00
      9.583     -0.005     8.2447     97.677     41.073  26.604872     3.7652      7.490   293.3177 1.2363e-01     6.6730      9.400     13.633     7.3845   999.9466 0.0000e+00
      9.577     -0.008     8.2392     97.585     41.092  26.618042     3.7658      7.491   293.1275 1.2371e-01     6.8788      9.391     13.621     7.3848   999.9465 0.0000e+00
      9.572     -0.004     8.2358     97.524     41.128  26.642267     3.7680      7.492   292.8627 1.2378e-01     7.0038      9.385     13.612     7.3849   999.9465 0.0000e+00
      9.570      0.007     8.2279     97.472     41.129  26.643992     3.7660      7.493   292.7840 1.2378e-01     7.0046      9.384     13.610     7.3846   999.9465 0.0000e+00
      9.571      0.027     8.2157     97.439     41.120  26.638893     3.7500      7.494   293.0365 1.2370e-01     6.9539      9.384     13.611     7.3848   999.9465 0.0000e+00
      9.576      0.052     8.2080     97.460     41.130  26.644059     3.7230      7.495   293.3338 1.2364e-01     6.9489      9.389     13.617     7.3860   999.9465 0.0000e+00
      9.588      0.072     8.2032     97.515     41.130  26.643011     3.7075      7.495   293.2816 1.2367e-01     6.9767      9.398     13.630     7.3880   999.9464 0.0000e+00
      9.613      0.083     8.1991     97.582     41.201  26.689665     3.7099      7.494   292.9210 1.2376e-01     6.9945      9.423     13.666     7.3898   999.9466 0.0000e+00
      9.651      0.086     8.1930     97.650     41.510  26.890915     3.7092      7.494   292.5017 1.2380e-01     7.0009      9.466     13.728     7.3899   999.9465 0.0000e+00
      9.687      0.080     8.1977     97.706     42.626  27.617084     3.6903      7.494   292.0830 1.2382e-01     6.8904      9.506     13.786     7.3883   999.9471 0.0000e+00
      9.707      0.068     8.2025     97.773     52.188  33.820142     3.6628      7.494   291.5586 1.2379e-01     6.6414      9.525     13.814     7.3873   999.9469 0.0000e+00
      9.715      0.054     8.2079     97.831    100.454  65.142049     3.6458      7.491   291.5819 1.2371e-01     6.4813      9.527     13.819     7.3876   999.9475 0.0000e+00
      9.717      0.044     8.2153     97.837    187.109 121.532074     3.6405      7.470   292.7090 1.2368e-01     6.4940      9.529     13.821     7.3889   999.9465 0.0000e+00
      9.721      0.042     8.2169     97.774    257.633 167.862855     3.6249      7.415   293.7433 1.2369e-01     6.5985      9.532     13.824     7.3919   999.9481 0.0000e+00
      9.728      0.046     8.2221     97.581    292.908 191.705351     3.6044      7.335   293.6764 1.2370e-01     6.7296      9.537     13.832     7.3979   999.9452 0.0000e+00
      9.743      0.051     8.2293     97.170    310.759 204.345920     3.6007      7.260   292.8464 1.2371e-01     6.7671      9.551     13.853     7.3985   999.9588 0.0000e+00
      9.766      0.053     8.2184     96.508    321.007 211.946393     3.6070      7.203   291.7959 1.2374e-01     6.7251      9.578     13.891     7.4256  1000.0037 0.0000e+00
      9.787      0.049     8.1930     95.522    328.361 217.479103     3.7575      7.165   290.8693 1.2378e-01     6.6476      9.603     13.927     7.5397  1000.0240 0.0000e+00
      9.800      0.042     8.1410     94.069    333.417 221.296701     4.0594      7.141   290.1607 1.2373e-01     6.5513      9.613     13.943     7.7144  1000.0233 0.0000e+00
      9.805      0.037     8.0797     93.209    335.335 222.751450     4.2142      7.132   289.8530 1.2368e-01     6.5108      9.615     13.946     7.8807  1000.0207 0.0000e+00
      9.807 -9.990e-29     7.9867 -9.990e-29 -9.990e-29 -9.990e-29 -9.990e-29 -9.990e-29 -9.990e-29 1.2371e-01 -9.990e-29      9.617     13.949     8.0210  1000.0145 0.0000e+00
      9.809 -9.990e-29     7.9112 -9.990e-29 -9.990e-29 -9.990e-29 -9.990e-29 -9.990e-29 -9.990e-29 1.2371e-01 -9.990e-29      9.619     13.951     8.1228  1000.0118 0.0000e+00
      9.809 -9.990e-29     7.7463 -9.990e-29 -9.990e-29 -9.990e-29 -9.990e-29 -9.990e-29 -9.990e-29 1.2374e-01 -9.990e-29      9.619     13.952     8.1972  1000.0086 0.0000e+00
      9.809 -9.990e-29     7.5837 -9.990e-29 -9.990e-29 -9.990e-29 -9.990e-29 -9.990e-29 -9.990e-29 1.2379e-01 -9.990e-29      9.620     13.952     8.2350  1000.0076 0.0000e+00
