* Sea-Bird SBE19plus  Data File:
* FileName = C:\R\Reservoirs\Data\DataNotYetUploadedToEDI\Raw_CTD\RawDownloads\112822_bvr50_S8188_0007.hex
* Software version 2.8.0.119
* Temperature SN = 8188
* Conductivity SN = 8188
* System UpLoad Time = Nov 28 2022 17:04:19
* <ApplicationData>
* <Seaterm232>
* <SoftwareVersion>2.8.0.119</SoftwareVersion>
* <BuildDate>07-Nov-2018</BuildDate>
* </Seaterm232>
* </ApplicationData>
* <InstrumentState>
* <HardwareData DeviceType='SBE19plus' SerialNumber='01908188'>
*
*    <Manufacturer>Sea-Bird Electronics, Inc.</Manufacturer>
*
*    <FirmwareVersion>3.1.8</FirmwareVersion>
*
*    <FirmwareDate>Mar  9 2016 16:22:29</FirmwareDate>
*
*    <CommandSetVersion>1.4</CommandSetVersion>
*
*    <PCBAssembly PCBSerialNum='260079' AssemblyNum='41054K'/>
*
*    <PCBAssembly PCBSerialNum='260083' AssemblyNum='41059E'/>
*
*    <PCBAssembly PCBSerialNum='260085' AssemblyNum='41606B'/>
*
*    <PCBAssembly PCBSerialNum='260081' AssemblyNum='41967C'/>
*
*    <MfgDate>30 Mar 2022</MfgDate>
*
*    <InternalSensors>
*
*       <Sensor id='Main Temperature'>
*
*          <type>temperature0</type>
*
*          <SerialNumber>01908188</SerialNumber>
*
*       </Sensor>
*
*       <Sensor id='Main Conductivity'>
*
*          <type>conductivity-0</type>
*
*          <SerialNumber>01908188</SerialNumber>
*
*       </Sensor>
*
*       <Sensor id='Main Pressure'>
*
*          <type>strain-0</type>
*
*          <SerialNumber>12220741</SerialNumber>
*
*       </Sensor>
*
*    </InternalSensors>
*
*    <ExternalSensors>
*
*       <Sensor id='volt 0'>
*
*          <type>CHL</type>
*
*          <SerialNumber>FLNTURT-7096</SerialNumber>
*
*       </Sensor>
*
*       <Sensor id='volt 1'>
*
*          <type>NTU</type>
*
*          <SerialNumber>FLNTURT-7096</SerialNumber>
*
*       </Sensor>
*
*       <Sensor id='volt 2'>
*
*          <type>OXY</type>
*
*          <SerialNumber>43-4269</SerialNumber>
*
*       </Sensor>
*
*       <Sensor id='volt 3'>
*
*          <type>not assigned</type>
*
*          <SerialNumber>not assigned</SerialNumber>
*
*       </Sensor>
*
*       <Sensor id='volt 4'>
*
*          <type>PAR</type>
*
*          <SerialNumber>PARLOGICSW-2209</SerialNumber>
*
*       </Sensor>
*
*       <Sensor id='volt 5'>
*
*          <type>not assigned</type>
*
*          <SerialNumber>not assigned</SerialNumber>
*
*       </Sensor>
*
*       <Sensor id='serial'>
*
*          <type>WETLABS</type>
*
*          <SerialNumber>FL3-7350</SerialNumber>
*
*       </Sensor>
*
*    </ExternalSensors>
*
* </HardwareData>
* <StatusData DeviceType='SBE19plus' SerialNumber='01908188'>
*
*    <DateTime>2022-11-28T15:01:11</DateTime>
*
*    <LoggingState>not logging</LoggingState>
*
*    <EventSummary numEvents='0'/>
*
*    <Power>
*
*       <vMain>13.2</vMain>
*
*       <vLith>8.3</vLith>
*
*       <iMain>61.7</iMain>
*
*       <iPump>57.2</iPump>
*
*       <iExt01>21.2</iExt01>
*
*       <iExt2345>20.3</iExt2345>
*
*       <iSerial>43.7</iSerial>
*
*    </Power>
*
*    <MemorySummary>
*
*       <Bytes>303600</Bytes>
*
*       <Samples>12144</Samples>
*
*       <SamplesFree>2619781</SamplesFree>
*
*       <SampleLength>25</SampleLength>
*
*       <Profiles>8</Profiles>
*
*    </MemorySummary>
*
* </StatusData>
* <ConfigurationData DeviceType='SBE19plus' SerialNumber='01908188'>
*
*    <ProfileMode>
*
*       <ScansToAverage>1</ScansToAverage>
*
*       <MinimumCondFreq>5</MinimumCondFreq>
*
*       <PumpDelay>40</PumpDelay>
*
*       <AutoRun>no</AutoRun>
*
*       <IgnoreSwitch>no</IgnoreSwitch>
*
*    </ProfileMode>
*
*    <Battery>
*
*       <Type>alkaline</Type>
*
*       <CutOff>7.5</CutOff>
*
*    </Battery>
*
*    <DataChannels>
*
*       <ExtVolt0>yes</ExtVolt0>
*
*       <ExtVolt1>yes</ExtVolt1>
*
*       <ExtVolt2>yes</ExtVolt2>
*
*       <ExtVolt3>no</ExtVolt3>
*
*       <ExtVolt4>yes</ExtVolt4>
*
*       <ExtVolt5>no</ExtVolt5>
*
*       <SBE38>no</SBE38>
*
*       <WETLABS>yes</WETLABS>
*
*       <OPTODE>no</OPTODE>
*
*       <SBE63>no</SBE63>
*
*       <SeaFET>no</SeaFET>
*
*       <GTD>no</GTD>
*
*    </DataChannels>
*
*    <EchoCharacters>yes</EchoCharacters>
*
*    <OutputExecutedTag>yes</OutputExecutedTag>
*
*    <OutputFormat>raw HEX</OutputFormat>
*
* </ConfigurationData>
* <CalibrationCoefficients DeviceType='SBE19plus' SerialNumber='01908188'>
*
*    <Calibration format='TEMP1' id='Main Temperature'>
*
*       <SerialNum>01908188</SerialNum>
*
*       <CalDate>21-Aug-22</CalDate>
*
*       <TA0>1.265284e-03</TA0>
*
*       <TA1>2.691806e-04</TA1>
*
*       <TA2>-5.655711e-07</TA2>
*
*       <TA3>1.602369e-07</TA3>
*
*       <TOFFSET>0.000000e+00</TOFFSET>
*
*    </Calibration>
*
*    <Calibration format='WBCOND0' id='Main Conductivity'>
*
*       <SerialNum>01908188</SerialNum>
*
*       <CalDate>21-Aug-22</CalDate>
*
*       <G>-1.009562e+00</G>
*
*       <H>1.439229e-01</H>
*
*       <I>-4.343583e-04</I>
*
*       <J>5.328694e-05</J>
*
*       <CPCOR>-9.570000e-08</CPCOR>
*
*       <CTCOR>3.250000e-06</CTCOR>
*
*       <CSLOPE>1.000000e+00</CSLOPE>
*
*    </Calibration>
*
*    <Calibration format='STRAIN0' id='Main Pressure'>
*
*       <SerialNum>12220741</SerialNum>
*
*       <CalDate>11-Aug-22</CalDate>
*
*       <PA0>1.627942e-01</PA0>
*
*       <PA1>4.835849e-04</PA1>
*
*       <PA2>-3.975488e-12</PA2>
*
*       <PTCA0>5.244803e+05</PTCA0>
*
*       <PTCA1>2.817194e+01</PTCA1>
*
*       <PTCA2>-5.842684e-01</PTCA2>
*
*       <PTCB0>2.522087e+01</PTCB0>
*
*       <PTCB1>5.750000e-04</PTCB1>
*
*       <PTCB2>0.000000e+00</PTCB2>
*
*       <PTEMPA0>-5.709556e+01</PTEMPA0>
*
*       <PTEMPA1>5.248567e+01</PTEMPA1>
*
*       <PTEMPA2>-2.281498e-01</PTEMPA2>
*
*       <POFFSET>-4.700000e-02</POFFSET>
*
*       <PRANGE>1.600000e+02</PRANGE>
*
*    </Calibration>
*
*    <Calibration format='VOLT0' id='Volt 0'>
*
*       <OFFSET>-4.657200e-02</OFFSET>
*
*       <SLOPE>1.248989e+00</SLOPE>
*
*    </Calibration>
*
*    <Calibration format='VOLT0' id='Volt 1'>
*
*       <OFFSET>-4.600800e-02</OFFSET>
*
*       <SLOPE>1.249849e+00</SLOPE>
*
*    </Calibration>
*
*    <Calibration format='VOLT0' id='Volt 2'>
*
*       <OFFSET>-4.668000e-02</OFFSET>
*
*       <SLOPE>1.250379e+00</SLOPE>
*
*    </Calibration>
*
*    <Calibration format='VOLT0' id='Volt 3'>
*
*       <OFFSET>-4.643200e-02</OFFSET>
*
*       <SLOPE>1.251002e+00</SLOPE>
*
*    </Calibration>
*
*    <Calibration format='VOLT0' id='Volt 4'>
*
*       <OFFSET>-4.606100e-02</OFFSET>
*
*       <SLOPE>1.249962e+00</SLOPE>
*
*    </Calibration>
*
*    <Calibration format='VOLT0' id='Volt 5'>
*
*       <OFFSET>-4.642700e-02</OFFSET>
*
*       <SLOPE>1.248530e+00</SLOPE>
*
*    </Calibration>
*
*    <Calibration format='FREQ0' id='external frequency channel'>
*
*       <EXTFREQSF>1.000018e+00</EXTFREQSF>
*
*    </Calibration>
*
* </CalibrationCoefficients>
* <EventCounters DeviceType='SBE19plus' SerialNumber='01908188'>
*
*    <EventSummary numEvents='0'/>
*
* </EventCounters></InstrumentState>
* <Headers>
*
* cast   7 28 Nov 2022 07:49:52 samples 10000 to 10933, avg = 1, stop = mag switch
*
# nquan = 16
# nvalues = 934                         
# units = specified
# name 0 = depFM: Depth [fresh water, m]
# name 1 = dz/dtM: Descent Rate [m/s]
# name 2 = sbeox0Mg/L: Oxygen, SBE 43 [mg/l]
# name 3 = sbeox0PS: Oxygen, SBE 43 [% saturation]
# name 4 = specc: Specific Conductance [uS/cm]
# name 5 = c0uS/cm: Conductivity [uS/cm]
# name 6 = wetCDOM: Fluorescence, WET Labs CDOM [mg/m^3]
# name 7 = flECO-AFL: Fluorescence, WET Labs ECO-AFL/FL [mg/m^3]
# name 8 = flECO-AFL1: Fluorescence, WET Labs ECO-AFL/FL, 2 [mg/m^3]
# name 9 = flECO-AFL2: Fluorescence, WET Labs ECO-AFL/FL, 3 [mg/m^3]
# name 10 = par/sat/log: PAR/Logarithmic, Satlantic
# name 11 = turbWETntu0: Turbidity, WET Labs ECO [NTU]
# name 12 = prdM: Pressure, Strain Gauge [db]
# name 13 = prdE: Pressure, Strain Gauge [psi]
# name 14 = tv290C: Temperature [ITS-90, deg C]
# name 15 = flag:  0.000e+00
# span 0 =     -0.807,      6.455       
# span 1 =     -0.199,      0.150       
# span 2 =     7.2561,    11.6896       
# span 3 =     60.013,     95.217       
# span 4 =      0.582,     40.089       
# span 5 =   0.422575,  25.280639       
# span 6 =    -0.7200,     7.2900       
# span 7 =    -0.5580,     5.2557       
# span 8 =    -1.0650,     0.7668       
# span 9 =    -0.8460,     3.6801       
# span 10 = 1.1597e-01, 2.6377e+03      
# span 11 =    -2.8132,   338.5513      
# span 12 =     -0.792,      6.331      
# span 13 =     -1.148,      9.182      
# span 14 =     6.5107,    11.2986      
# span 15 = 0.0000e+00, 0.0000e+00      
# interval = seconds: 0.25
# start_time = Nov 28 2022 07:49:52 [Instrument's time stamp, header]
# bad_flag = -9.990e-29
# <Sensors count="10" >
#   <sensor Channel="1" >
#     <!-- Count, Temperature -->
#     <TemperatureSensor SensorID="58" >
#       <SerialNumber>8188</SerialNumber>
#       <CalibrationDate>21-Aug-22</CalibrationDate>
#       <A0>1.26528397e-003</A0>
#       <A1>2.69180636e-004</A1>
#       <A2>-5.65571102e-007</A2>
#       <A3>1.60236871e-007</A3>
#       <Slope>1.00000000</Slope>
#       <Offset>0.0000</Offset>
#     </TemperatureSensor>
#   </sensor>
#   <sensor Channel="2" >
#     <!-- Frequency 0, Conductivity -->
#     <ConductivitySensor SensorID="3" >
#       <SerialNumber>8188</SerialNumber>
#       <CalibrationDate>21-Aug-22</CalibrationDate>
#       <UseG_J>1</UseG_J>
#       <!-- Cell const and series R are applicable only for wide range sensors. -->
#       <SeriesR>0.0000</SeriesR>
#       <CellConst>2000.0000</CellConst>
#       <ConductivityType>0</ConductivityType>
#       <Coefficients equation="0" >
#         <A>0.00000000e+000</A>
#         <B>0.00000000e+000</B>
#         <C>0.00000000e+000</C>
#         <D>0.00000000e+000</D>
#         <M>0.0</M>
#         <CPcor>-9.57000000e-008</CPcor>
#       </Coefficients>
#       <Coefficients equation="1" >
#         <G>-1.00956200e+000</G>
#         <H>1.43922862e-001</H>
#         <I>-4.34358337e-004</I>
#         <J>5.32869425e-005</J>
#         <CPcor>-9.57000000e-008</CPcor>
#         <CTcor>3.2500e-006</CTcor>
#         <!-- WBOTC not applicable unless ConductivityType = 1. -->
#         <WBOTC>0.00000000e+000</WBOTC>
#       </Coefficients>
#       <Slope>1.00000000</Slope>
#       <Offset>0.00000</Offset>
#     </ConductivitySensor>
#   </sensor>
#   <sensor Channel="3" >
#     <!-- Count, Pressure, Strain Gauge -->
#     <PressureSensor SensorID="46" >
#       <SerialNumber>8188</SerialNumber>
#       <CalibrationDate>11-Aug-22</CalibrationDate>
#       <PA0>1.62794185e-001</PA0>
#       <PA1>4.83584930e-004</PA1>
#       <PA2>-3.97548787e-012</PA2>
#       <PTEMPA0>-5.70955636e+001</PTEMPA0>
#       <PTEMPA1>5.24856726e+001</PTEMPA1>
#       <PTEMPA2>-2.28149804e-001</PTEMPA2>
#       <PTCA0>5.24480263e+005</PTCA0>
#       <PTCA1>2.81719406e+001</PTCA1>
#       <PTCA2>-5.84268386e-001</PTCA2>
#       <PTCB0>2.52208750e+001</PTCB0>
#       <PTCB1>5.75000000e-004</PTCB1>
#       <PTCB2>0.00000000e+000</PTCB2>
#       <Offset>0.000000</Offset>
#     </PressureSensor>
#   </sensor>
#   <sensor Channel="4" >
#     <!-- A/D voltage 0, Fluorometer, WET Labs ECO-AFL/FL -->
#     <FluoroWetlabECO_AFL_FL_Sensor SensorID="20" >
#       <SerialNumber>FLNTURT-7096</SerialNumber>
#       <CalibrationDate>01-Sep-2022</CalibrationDate>
#       <ScaleFactor>5.00000000e+001</ScaleFactor>
#       <!-- Dark output -->
#       <Vblank>0.0680</Vblank>
#     </FluoroWetlabECO_AFL_FL_Sensor>
#   </sensor>
#   <sensor Channel="5" >
#     <!-- A/D voltage 1, Turbidity Meter, WET Labs, ECO-NTU -->
#     <TurbidityMeter SensorID="67" >
#       <SerialNumber>FLNTURT-7096</SerialNumber>
#       <CalibrationDate>01-Sep-2022</CalibrationDate>
#       <ScaleFactor>197.000000</ScaleFactor>
#       <!-- Dark output -->
#       <DarkVoltage>0.067000</DarkVoltage>
#     </TurbidityMeter>
#   </sensor>
#   <sensor Channel="6" >
#     <!-- A/D voltage 2, Oxygen, SBE 43 -->
#     <OxygenSensor SensorID="38" >
#       <SerialNumber>4269</SerialNumber>
#       <CalibrationDate>16-Aug-22</CalibrationDate>
#       <Use2007Equation>1</Use2007Equation>
#       <CalibrationCoefficients equation="0" >
#         <!-- Coefficients for Owens-Millard equation. -->
#         <Boc>0.0000</Boc>
#         <Soc>0.0000e+000</Soc>
#         <offset>0.0000</offset>
#         <Pcor>0.00e+000</Pcor>
#         <Tcor>0.0000</Tcor>
#         <Tau>0.0</Tau>
#       </CalibrationCoefficients>
#       <CalibrationCoefficients equation="1" >
#         <!-- Coefficients for Sea-Bird equation - SBE calibration in 2007 and later. -->
#         <Soc>4.2506e-001</Soc>
#         <offset>-0.4922</offset>
#         <A>-4.5893e-003</A>
#         <B> 1.8653e-004</B>
#         <C>-2.0781e-006</C>
#         <D0> 2.5826e+000</D0>
#         <D1> 1.92634e-004</D1>
#         <D2>-4.64803e-002</D2>
#         <E> 3.6000e-002</E>
#         <Tau20> 2.3100</Tau20>
#         <H1>-3.3000e-002</H1>
#         <H2> 5.0000e+003</H2>
#         <H3> 1.4500e+003</H3>
#       </CalibrationCoefficients>
#     </OxygenSensor>
#   </sensor>
#   <sensor Channel="7" >
#     <!-- A/D voltage 3, PAR/Logarithmic, Satlantic -->
#     <PARLog_SatlanticSensor SensorID="76" >
#       <SerialNumber>2209</SerialNumber>
#       <CalibrationDate>14-Jan-2022</CalibrationDate>
#       <a0>9.8861e-001</a0>
#       <a1>8.0845e-001</a1>
#       <Im>1.3589e+000</Im>
#       <Multiplier>1.0000e+000</Multiplier>
#     </PARLog_SatlanticSensor>
#   </sensor>
#   <sensor Channel="8" >
#     <!-- Serial RS-232, Fluorometer, WET Labs ECO-AFL/FL, 2 -->
#     <FluoroWetlabECO_AFL_FL_Sensor SensorID="20" >
#       <SerialNumber>FL3-7350</SerialNumber>
#       <CalibrationDate>10-Mar-2022</CalibrationDate>
#       <ScaleFactor>4.26000000e-002</ScaleFactor>
#       <!-- Dark output -->
#       <Vblank>50.0000</Vblank>
#     </FluoroWetlabECO_AFL_FL_Sensor>
#   </sensor>
#   <sensor Channel="9" >
#     <!-- Serial RS-232, Fluorometer, WET Labs ECO-AFL/FL, 3 -->
#     <FluoroWetlabECO_AFL_FL_Sensor SensorID="20" >
#       <SerialNumber>FL3-7350</SerialNumber>
#       <CalibrationDate>10-Mar-2022</CalibrationDate>
#       <ScaleFactor>4.23000000e-002</ScaleFactor>
#       <!-- Dark output -->
#       <Vblank>48.0000</Vblank>
#     </FluoroWetlabECO_AFL_FL_Sensor>
#   </sensor>
#   <sensor Channel="10" >
#     <!-- Serial RS-232, Fluorometer, WET Labs ECO CDOM -->
#     <FluoroWetlabCDOM_Sensor SensorID="19" >
#       <SerialNumber>FL3-7350</SerialNumber>
#       <CalibrationDate>10-Mar-2022</CalibrationDate>
#       <ScaleFactor>0.090</ScaleFactor>
#       <!-- Dark output -->
#       <Vblank>50.000</Vblank>
#     </FluoroWetlabCDOM_Sensor>
#   </sensor>
# </Sensors>
# datcnv_date = Dec 12 2022 16:31:49, 7.26.7.129 [datcnv_vars = 15]
# datcnv_in = C:\R\Reservoirs\Data\DataNotYetUploadedToEDI\Raw_CTD\RawDownloads\112822_bvr50_S8188007.hex C:\R\Reservoirs\Data\DataNotYetUploadedToEDI\Raw_CTD\RawDownloads\SBE19plusV2_8188_start20221003.xmlcon
# datcnv_skipover = 0
# datcnv_ox_hysteresis_correction = yes
# datcnv_ox_tau_correction = yes
# filter_date = Dec 12 2022 16:32:33, 7.26.7.129
# filter_in = C:\R\Reservoirs\Data\DataNotYetUploadedToEDI\Raw_CTD\RawDownloads\112822_bvr50_S8188007.cnv
# filter_low_pass_tc_A = 0.500
# filter_low_pass_tc_B = 1.000
# filter_low_pass_A_vars = sbeox0Mg/L sbeox0PS specc c0uS/cm tv290C
# filter_low_pass_B_vars = depFM dz/dtM prdM prdE
# alignctd_date = Dec 12 2022 16:33:09, 7.26.7.129
# alignctd_in = C:\R\Reservoirs\Data\DataNotYetUploadedToEDI\Raw_CTD\RawDownloads\112822_bvr50_S8188007.cnv
# alignctd_adv = dz/dtM 1.000, sbeox0PS 1.000, specc 1.000, c0uS/cm 1.000, flECO-AFL 1.000, turbWETntu0 1.000                                                                                                                        
# file_type = ascii
*END*
     -0.807      0.000     9.8614     90.087      0.591   0.428950     0.0000    -0.1155     0.0000     0.1692 1.1617e-01     2.5225     -0.792     -1.148    11.2986 0.0000e+00
     -0.807      0.000     9.8624     90.092      0.594   0.431046     0.0000    -0.1079     0.0000     0.1692 1.1612e-01     2.5376     -0.791     -1.148    11.2984 0.0000e+00
     -0.807      0.000     9.8634     90.092      0.596   0.432449     0.1800    -0.1155     0.0000     0.0846 1.1615e-01     2.4474     -0.791     -1.147    11.2982 0.0000e+00
     -0.807      0.000     9.8647     90.090      0.592   0.429578     0.1800    -0.1575     0.0000     0.0846 1.1605e-01     2.0416     -0.791     -1.147    11.2979 0.0000e+00
     -0.807      0.000     9.8659     90.087      0.586   0.425621     0.1800    -0.1689     0.0000     0.0846 1.1620e-01     2.1167     -0.791     -1.147    11.2977 0.0000e+00
     -0.807      0.000     9.8664     90.086      0.583   0.423477     0.1800    -0.1651     0.0000     0.0846 1.1607e-01     2.0115     -0.791     -1.147    11.2974 0.0000e+00
     -0.807      0.000     9.8666     90.082      0.582   0.422575     0.0000    -0.1803     0.0000     0.0423 1.1600e-01     2.1017     -0.791     -1.147    11.2971 0.0000e+00
     -0.807      0.000     9.8664     90.069      0.582   0.422675     0.0000    -0.1231     0.0000     0.0423 1.1633e-01     2.7780     -0.791     -1.147    11.2968 0.0000e+00
     -0.807      0.000     9.8661     90.052      0.584   0.423803     0.0000    -0.0850     0.0000     0.0423 1.1623e-01     2.8081     -0.791     -1.147    11.2965 0.0000e+00
     -0.806      0.001     9.8661     90.031      0.587   0.426259     0.0000    -0.1193     0.0000     0.0423 1.1605e-01     2.9133     -0.791     -1.147    11.2962 0.0000e+00
     -0.806      0.001     9.8657     90.010      0.594   0.430700     0.0000    -0.1079     0.0000     0.0000 1.1628e-01     2.7480     -0.790     -1.147    11.2958 0.0000e+00
     -0.806      0.001     9.8644     89.991      0.599   0.434354     0.0000    -0.0697     0.0000     0.0000 1.1628e-01     2.9434     -0.790     -1.147    11.2955 0.0000e+00
     -0.806      0.001     9.8626     89.979      0.599   0.434242     0.0000    -0.0697     0.0000     0.0000 1.1612e-01     2.8983     -0.790     -1.146    11.2952 0.0000e+00
     -0.805      0.002     9.8604     89.978      0.599   0.434288     0.0000    -0.0506     0.0000     0.0000 1.1628e-01     2.9734     -0.790     -1.146    11.2949 0.0000e+00
     -0.805      0.002     9.8582     89.991      0.605   0.438459     0.0000    -0.0659     0.0000     0.1692 1.1602e-01     2.9734     -0.789     -1.145    11.2946 0.0000e+00
     -0.804      0.003     9.8561     90.014      0.618   0.447866     0.0000    -0.1498     0.0000     0.1692 1.1612e-01     0.0726     -0.789     -1.144    11.2944 0.0000e+00
     -0.804      0.003     9.8548     90.047      0.642   0.465020     0.0000    -0.1269     0.0000     0.1692 1.1623e-01     0.1478     -0.788     -1.143    11.2942 0.0000e+00
     -0.803      0.004     9.8547     90.087      0.679   0.490539     0.0000    -0.1269     0.0000     0.1692 1.1617e-01     0.1327     -0.787     -1.142    11.2940 0.0000e+00
     -0.802      0.005     9.8563     90.117      0.732   0.527275     0.0000    -0.1079     0.0000     0.1692 1.1628e-01     0.2379     -0.786     -1.141    11.2936 0.0000e+00
     -0.801      0.006     9.8590     90.125      0.815   0.585024     0.0000    -0.1231     0.0426    -0.0423 1.1633e-01     0.0726     -0.785     -1.139    11.2930 0.0000e+00
     -0.799      0.008     9.8628     90.118      0.943   0.673254     0.0000    -0.1269     0.0426    -0.0423 1.1600e-01     0.1177     -0.784     -1.137    11.2920 0.0000e+00
     -0.797      0.010     9.8676     90.101      1.137   0.807584     0.0000    -0.1155     0.0426    -0.0423 1.1610e-01     0.0726     -0.782     -1.134    11.2903 0.0000e+00
     -0.795      0.012     9.8716     90.082      1.443   1.017906     0.0000    -0.1155     0.0426    -0.0423 1.1605e-01     0.1327     -0.779     -1.130    11.2875 0.0000e+00
     -0.791      0.016     9.8736     90.067      1.914   1.340532     0.0000    -0.1079     0.0000    -0.0423 1.1605e-01     0.1027     -0.776     -1.126    11.2830 0.0000e+00
     -0.787      0.020     9.8745     90.058      2.639   1.833815     0.0000    -0.0773     0.0000    -0.0423 1.1633e-01     0.2379     -0.772     -1.120    11.2756 0.0000e+00
     -0.782      0.026     9.8757     90.055      3.788   2.613482     0.0000    -0.1041     0.0000    -0.0423 1.1625e-01    -0.0176     -0.767     -1.113    11.2634 0.0000e+00
     -0.776      0.033     9.8784     90.072      5.658   3.879535     0.0000    -0.1384     0.0000    -0.0423 1.1623e-01     0.1327     -0.761     -1.104    11.2433 0.0000e+00
     -0.767      0.042     9.8847     90.117      8.740   5.965633     0.0000    -0.0049     0.0426    -0.0423 1.1623e-01     1.5756     -0.753     -1.091    11.2107 0.0000e+00
     -0.756      0.054     9.8966     90.192     13.345   9.056308     0.0000    -0.0545     0.0426    -0.0423 1.1612e-01     1.6207     -0.742     -1.076    11.1571 0.0000e+00
     -0.742      0.069     9.9178     90.301     19.107  12.852443     0.0000    -0.0583     0.0426    -0.0423 1.1633e-01     1.5606     -0.728     -1.056    11.0687 0.0000e+00
     -0.724      0.085     9.9553     90.440     24.908  16.576085     0.0000    -0.0392     0.0426    -0.0423 1.1615e-01     1.5606     -0.711     -1.031    10.9218 0.0000e+00
     -0.701      0.102    10.0195     90.600     29.463  19.397852     0.0000     0.5750     0.0426     0.0846 1.1628e-01     9.3913     -0.688     -0.998    10.6775 0.0000e+00
     -0.672      0.119    10.1252     90.790     32.468  21.169789     0.0000     0.5521     0.0426     0.0846 1.1605e-01     9.3462     -0.660     -0.957    10.2766 0.0000e+00
     -0.638      0.133    10.2766     91.028     34.394  22.247620     0.0000     0.5406     0.0426     0.0846 1.1612e-01     9.3462     -0.626     -0.907     9.7068 0.0000e+00
     -0.599      0.144    10.4513     91.330     35.633  22.906883     0.0000     0.5788     0.0426     0.0846 1.1628e-01     9.3011     -0.588     -0.853     9.0647 0.0000e+00
     -0.559      0.150    10.6204     91.713     36.423  23.307540     0.0000     0.7199     0.0426     0.0846 1.1628e-01     9.5416     -0.548     -0.795     8.4673 0.0000e+00
     -0.518      0.150    10.7700     92.185     36.927  23.552473     6.5700     0.7276     0.3834    -0.8460 1.1607e-01     9.5717     -0.508     -0.737     7.9700 0.0000e+00
     -0.478      0.145    10.8986     92.736     37.255  23.706993     6.5700     0.7276     0.3834    -0.8460 1.1612e-01     9.6318     -0.468     -0.679     7.5836 0.0000e+00
     -0.439      0.136    11.0101     93.337     37.478  23.812307     6.5700     0.7505     0.3834    -0.8460 1.1623e-01     9.6167     -0.431     -0.625     7.2976 0.0000e+00
     -0.404      0.123    11.1107     93.942     37.645  23.894518     6.5700     0.8649     0.3834    -0.8460 1.1615e-01     9.5717     -0.397     -0.575     7.0929 0.0000e+00
     -0.374      0.108    11.2062     94.492     37.776  23.963671     6.7500     0.8420     0.3408     0.0846 1.1605e-01     9.7220     -0.367     -0.533     6.9503 0.0000e+00
     -0.349      0.092    11.2994     94.919     37.867  24.016432     6.7500     0.8611     0.3408     0.0846 1.1617e-01     9.5416     -0.342     -0.497     6.8535 0.0000e+00
     -0.329      0.076    11.3901     95.151     37.916  24.047078     6.7500     0.8496     0.3408     0.0846 1.1615e-01     9.6017     -0.322     -0.467     6.7896 0.0000e+00
     -0.312      0.062    11.4752     95.118     37.924  24.051903     6.7500     0.8000     0.3408     0.0846 1.1617e-01     9.5266     -0.306     -0.444     6.7489 0.0000e+00
     -0.299      0.049    11.5488     94.733     37.903  24.036154     6.8400     0.7924     0.2982     0.2538 1.1630e-01     9.3462     -0.293     -0.425     6.7253 0.0000e+00
     -0.289      0.038    11.6036     93.865     37.873  24.015425     6.8400     0.7772     0.2982     0.2538 1.1620e-01     9.3913     -0.283     -0.411     6.7150 0.0000e+00
     -0.281      0.028    11.6326     92.330     37.854  24.003983     6.8400     0.7848     0.2982     0.2538 1.1633e-01     9.3612     -0.276     -0.400     6.7122 0.0000e+00
     -0.276      0.021    11.6289     89.978     37.849  24.002736     6.8400     0.8115     0.2982     0.2538 1.1612e-01     9.4214     -0.271     -0.393     6.7105 0.0000e+00
     -0.273      0.015    11.5827     86.925     37.841  23.999475     6.8400     0.7810     0.2982     0.1692 1.1610e-01     9.4063     -0.267     -0.388     6.7071 0.0000e+00
     -0.270      0.010    11.4775     83.542     37.823  23.989371     6.8400     0.7924     0.2982     0.1692 1.1605e-01     9.4364     -0.265     -0.384     6.7043 0.0000e+00
     -0.268      0.006    11.2897     80.167     37.810  23.981606     6.8400     0.7886     0.2982     0.1692 1.1620e-01     9.3913     -0.263     -0.381     6.7047 0.0000e+00
     -0.267      0.003    11.0014     77.019     37.809  23.982029     6.8400     0.7886     0.2982     0.1692 1.1628e-01     9.3161     -0.262     -0.380     6.7073 0.0000e+00
     -0.267      0.001    10.6274     74.288     37.808  23.982834     6.8400     0.8000     0.2982     0.1692 1.1605e-01     9.3913     -0.262     -0.380     6.7097 0.0000e+00
     -0.268     -0.001    10.2135     72.085     37.802  23.980277     6.7500     0.8191     0.2982     0.2538 7.9794e+00     9.3462     -0.262     -0.381     6.7108 0.0000e+00
     -0.268     -0.003     9.8007     70.426     37.808  23.985552     6.7500     0.7924     0.2982     0.2538 1.2322e+02     9.3763     -0.263     -0.382     6.7116 0.0000e+00
     -0.269     -0.003     9.4156     69.276     37.836  24.004025     6.7500     0.7962     0.2982     0.2538 1.4494e+02     9.3763     -0.264     -0.383     6.7129 0.0000e+00
     -0.270     -0.003     9.0812     68.519     37.873  24.028746     6.7500     0.8000     0.2982     0.2538 1.6787e+02     9.4063     -0.265     -0.385     6.7150 0.0000e+00
     -0.272     -0.001     8.8114     68.038     37.905  24.050471     6.8400     0.7848     0.3408     0.1692 1.6663e+02     9.4063     -0.266     -0.387     6.7170 0.0000e+00
     -0.273      0.001     8.6084     67.835     37.925  24.063117     6.8400     0.8077     0.3408     0.1692 1.5793e+02     9.3612     -0.267     -0.388     6.7183 0.0000e+00
     -0.273      0.003     8.4676     67.936     37.940  24.070057     6.8400     0.7581     0.3408     0.1692 1.5497e+02     9.6618     -0.267     -0.388     6.7194 0.0000e+00
     -0.271      0.005     8.3747     68.295     37.958  24.077099     6.8400     0.7810     0.3408     0.1692 1.5091e+02     9.6017     -0.266     -0.386     6.7211 0.0000e+00
     -0.269      0.007     8.3155     68.837     37.980  24.086121     6.8400     0.7733     0.2982     0.2961 1.3700e+02     9.7069     -0.264     -0.382     6.7229 0.0000e+00
     -0.266      0.007     8.2907     69.455     38.014  24.103488     6.8400     0.7810     0.2982     0.2961 1.3192e+02     9.5266     -0.261     -0.378     6.7230 0.0000e+00
     -0.263      0.007     8.3037     70.010     38.058  24.129873     6.8400     0.8000     0.2982     0.2961 1.3808e+02     9.8873     -0.258     -0.374     6.7197 0.0000e+00
     -0.261      0.005     8.3488     70.393     38.093  24.152515     6.8400     0.7962     0.2982     0.2961 1.3790e+02     9.9624     -0.256     -0.372     6.7138 0.0000e+00
     -0.260      0.003     8.4164     70.554     38.100  24.157658     6.9300     0.8229     0.4260     0.2115 1.3680e+02     9.8723     -0.255     -0.370     6.7073 0.0000e+00
     -0.260      0.001     8.4931     70.493     38.077  24.142716     6.9300     0.7695     0.4260     0.2115 1.1296e+02     9.8422     -0.255     -0.369     6.7022 0.0000e+00
     -0.260      0.000     8.5613     70.257     38.043  24.119538     6.9300     0.8649     0.4260     0.2115 1.3862e+02     9.5717     -0.255     -0.370     6.6999 0.0000e+00
     -0.261     -0.001     8.6081     69.928     38.013  24.097781     6.9300     0.8611     0.4260     0.2115 1.1338e+02     9.6769     -0.256     -0.371     6.7004 0.0000e+00
     -0.262     -0.001     8.6276     69.581     37.984  24.075601     6.9300     0.8725     0.4260     0.2115 1.4761e+02     9.6769     -0.256     -0.372     6.7014 0.0000e+00
     -0.262      0.001     8.6202     69.277     37.951  24.051042     6.8400     0.8573     0.2982     0.1692 1.2231e+02     9.6017     -0.257     -0.373     6.7010 0.0000e+00
     -0.262      0.003     8.5919     69.050     37.922  24.029432     6.8400     0.8802     0.2982     0.1692 1.2170e+02     9.4364     -0.257     -0.373     6.6989 0.0000e+00
     -0.261      0.006     8.5525     68.904     37.906  24.016886     6.8400     0.8649     0.2982     0.1692 1.2293e+02     9.3763     -0.256     -0.372     6.6952 0.0000e+00
     -0.259      0.009     8.5110     68.817     37.899  24.010057     6.8400     0.8496     0.2982     0.1692 1.3605e+02     9.4364     -0.254     -0.369     6.6905 0.0000e+00
     -0.256      0.012     8.4748     68.757     37.891  24.003165     6.8400     0.8763     0.3408     0.1692 1.1365e+02     9.3913     -0.251     -0.364     6.6857 0.0000e+00
     -0.252      0.014     8.4479     68.712     37.885  23.998331     6.8400     0.8496     0.3408     0.1692 1.1143e+02     9.6017     -0.247     -0.358     6.6814 0.0000e+00
     -0.247      0.013     8.4309     68.698     37.876  23.994267     6.8400     0.8496     0.3408     0.1692 9.8874e+01     9.6769     -0.242     -0.351     6.6776 0.0000e+00
     -0.242      0.011     8.4209     68.733     37.852  23.981971     6.8400     0.8420     0.3408     0.1692 9.4443e+01     9.5717     -0.238     -0.345     6.6744 0.0000e+00
     -0.239      0.006     8.4140     68.843     37.819  23.964101     6.8400     0.8496     0.3408     0.2115 8.6336e+01     9.5416     -0.234     -0.339     6.6720 0.0000e+00
     -0.237     -0.001     8.4088     69.070     37.797  23.953709     6.8400     0.8611     0.3408     0.2115 7.7717e+01     9.5717     -0.232     -0.337     6.6714 0.0000e+00
     -0.238     -0.008     8.4066     69.448     37.792  23.953961     6.8400     0.8496     0.3408     0.2115 1.0760e+02     9.6017     -0.233     -0.338     6.6731 0.0000e+00
     -0.242     -0.015     8.4100     69.983     37.800  23.962945     6.8400     0.8458     0.3408     0.2115 1.1512e+02     9.5115     -0.237     -0.344     6.6769 0.0000e+00
     -0.248     -0.020     8.4226     70.645     37.825  23.985037     6.8400     0.8420     0.2982     0.1692 1.3055e+02     9.6468     -0.243     -0.352     6.6814 0.0000e+00
     -0.255     -0.024     8.4495     71.392     37.864  24.020188     6.8400     0.8344     0.2982     0.1692 1.5595e+02     9.5416     -0.250     -0.363     6.6856 0.0000e+00
     -0.263     -0.025     8.4948     72.175     37.895  24.056000     6.8400     0.8496     0.2982     0.1692 1.5734e+02     9.6618     -0.257     -0.373     6.6899 0.0000e+00
     -0.270     -0.025     8.5589     72.944     37.897  24.080247     6.8400     0.8420     0.2982     0.1692 1.5986e+02     9.4815     -0.264     -0.383     6.6954 0.0000e+00
     -0.276     -0.023     8.6382     73.652     37.872  24.091479     6.8400     0.8267     0.2982     0.1692 1.5724e+02     9.6468     -0.271     -0.392     6.7035 0.0000e+00
     -0.282     -0.020     8.7264     74.245     37.837  24.096651     6.8400     0.9870     0.3408     0.2115 1.5164e+02     9.4063     -0.276     -0.401     6.7171 0.0000e+00
     -0.287     -0.015     8.8172     74.680     37.797  24.097143     6.8400     0.9450     0.3408     0.2115 1.7245e+02     9.3312     -0.281     -0.408     6.7388 0.0000e+00
     -0.291     -0.009     8.9044     74.932     37.747  24.089128     6.8400     0.9870     0.3408     0.2115 1.7253e+02     9.3462     -0.285     -0.414     6.7690 0.0000e+00
     -0.293     -0.003     8.9828     75.006     37.702  24.078388     6.8400     0.9717     0.3408     0.2115 1.6570e+02     9.3913     -0.288     -0.417     6.8046 0.0000e+00
     -0.293      0.004     9.0471     74.932     37.678  24.069977     6.8400     0.8992     0.3408     0.2961 1.4935e+02     9.5717     -0.288     -0.417     6.8408 0.0000e+00
     -0.291      0.010     9.0923     74.756     37.674  24.061654     6.8400     0.8878     0.3408     0.2961 1.6926e+02     9.5416     -0.285     -0.414     6.8753 0.0000e+00
     -0.286      0.013     9.1159     74.524     37.685  24.055156     6.8400     0.8763     0.3408     0.2961 1.4044e+02     9.6769     -0.281     -0.407     6.9070 0.0000e+00
     -0.281      0.015     9.1195     74.293     37.707  24.052710     6.8400     0.9450     0.3408     0.2961 1.4312e+02     9.5266     -0.275     -0.399     6.9309 0.0000e+00
     -0.275      0.014     9.1086     74.118     37.731  24.049704     6.8400     0.8649     0.2982     0.1692 1.5700e+02     9.2861     -0.270     -0.391     6.9398 0.0000e+00
     -0.271      0.011     9.0888     74.044     37.746  24.041376     6.8400     0.8611     0.2982     0.1692 1.6678e+02     9.3161     -0.266     -0.385     6.9324 0.0000e+00
     -0.269      0.007     9.0647     74.082     37.754  24.029463     6.8400     0.8382     0.2982     0.1692 1.7701e+02     9.3612     -0.263     -0.382     6.9146 0.0000e+00
     -0.268      0.002     9.0415     74.215     37.762  24.018706     6.8400     0.8763     0.2982     0.1692 1.6147e+02     9.2861     -0.263     -0.382     6.8925 0.0000e+00
     -0.269     -0.001     9.0256     74.402     37.775  24.014154     6.8400     0.9069     0.2982     0.1692 2.3387e+02     9.7069     -0.264     -0.383     6.8687 0.0000e+00
     -0.271     -0.003     9.0219     74.598     37.798  24.022511     6.8400     0.9259     0.2982     0.1269 2.4995e+02     9.6017     -0.266     -0.385     6.8450 0.0000e+00
     -0.272     -0.004     9.0318     74.751     37.831  24.046005     6.8400     0.8878     0.2982     0.1269 2.8415e+02     9.7069     -0.267     -0.388     6.8220 0.0000e+00
     -0.273     -0.005     9.0528     74.814     37.842  24.067146     6.8400     0.8954     0.2982     0.1269 2.8328e+02     9.6318     -0.268     -0.389     6.8010 0.0000e+00
     -0.274     -0.008     9.0793     74.754     37.806  24.067820     6.8400     0.9755     0.2982     0.1269 2.7611e+02     9.6769     -0.268     -0.390     6.7845 0.0000e+00
     -0.274     -0.012     9.1052     74.569     37.748  24.056125     6.9300     0.9793     0.3408     0.1692 2.5964e+02     9.6919     -0.269     -0.390     6.7760 0.0000e+00
     -0.277     -0.019     9.1232     74.297     37.710  24.048739     6.9300     0.9793     0.3408     0.1692 2.0066e+02     9.5717     -0.271     -0.393     6.7792 0.0000e+00
     -0.282     -0.026     9.1266     74.000     37.709  24.055570     6.9300     0.9526     0.3408     0.1692 2.8218e+02     9.5717     -0.276     -0.401     6.7980 0.0000e+00
     -0.290     -0.034     9.1120     73.747     37.731  24.070522     6.9300     0.9221     0.3408     0.1692 2.7545e+02     9.5717     -0.284     -0.412     6.8297 0.0000e+00
     -0.301     -0.040     9.0820     73.602     37.745  24.081745     6.8400     0.8992     0.3408     0.2538 3.0414e+02     9.6468     -0.295     -0.428     6.8626 0.0000e+00
     -0.314     -0.043     9.0436     73.598     37.752  24.092231     6.8400     0.9221     0.3408     0.2538 3.2576e+02     9.6468     -0.308     -0.446     6.8853 0.0000e+00
     -0.327     -0.042     9.0053     73.726     37.764  24.108737     6.8400     0.9107     0.3408     0.2538 3.2782e+02     9.6769     -0.321     -0.465     6.8947 0.0000e+00
     -0.340     -0.037     8.9742     73.942     37.785  24.131706     6.8400     0.8458     0.3408     0.2538 3.6402e+02     9.4063     -0.333     -0.483     6.8963 0.0000e+00
     -0.351     -0.028     8.9560     74.186     37.801  24.151427     6.8400     0.8458     0.3408     0.2115 3.8635e+02     9.5115     -0.344     -0.498     6.8988 0.0000e+00
     -0.357     -0.017     8.9538     74.391     37.804  24.161282     6.8400     0.8267     0.3408     0.2115 3.9656e+02     9.3462     -0.350     -0.508     6.9068 0.0000e+00
     -0.360     -0.005     8.9667     74.493     37.803  24.167858     6.8400     0.8573     0.3408     0.2115 3.9304e+02     9.3462     -0.353     -0.512     6.9189 0.0000e+00
     -0.359      0.007     8.9900     74.444     37.807  24.176869     6.8400     0.9832     0.3408     0.2115 3.9734e+02     9.4664     -0.352     -0.510     6.9318 0.0000e+00
     -0.355      0.018     9.0169     74.225     37.820  24.190718     6.8400     0.9717     0.3408     0.2115 3.9621e+02     9.5416     -0.348     -0.504     6.9441 0.0000e+00
     -0.347      0.027     9.0394     73.838     37.841  24.209138     6.8400     0.9908     0.3408     0.2538 3.8922e+02     9.3312     -0.341     -0.494     6.9547 0.0000e+00
     -0.338      0.034     9.0498     73.296     37.865  24.229123     6.8400     0.9717     0.3408     0.2538 3.5550e+02     9.2861     -0.331     -0.480     6.9639 0.0000e+00
     -0.327      0.037     9.0421     72.623     37.887  24.248085     6.8400     1.1014     0.3408     0.2538 3.0099e+02     9.3462     -0.321     -0.465     6.9721 0.0000e+00
     -0.316      0.038     9.0137     71.846     37.902  24.263164     6.8400     1.1090     0.3408     0.2538 2.9890e+02     9.3312     -0.310     -0.449     6.9795 0.0000e+00
     -0.305      0.036     8.9652     71.002     37.910  24.274420     6.8400     1.0938     0.2982     0.2538 2.9216e+02     9.3763     -0.299     -0.433     6.9863 0.0000e+00
     -0.295      0.031     8.8981     70.127     37.916  24.284856     6.8400     1.1167     0.2982     0.2538 2.9774e+02     9.4965     -0.289     -0.419     6.9927 0.0000e+00
     -0.287      0.024     8.8149     69.251     37.917  24.293295     6.8400     1.1510     0.2982     0.2538 2.9535e+02     9.3161     -0.281     -0.408     6.9991 0.0000e+00
     -0.281      0.014     8.7192     68.399     37.912  24.298030     6.8400     1.1434     0.2982     0.2538 1.7751e+02     9.3161     -0.275     -0.399     7.0061 0.0000e+00
     -0.278      0.003     8.6151     67.595     37.902  24.300324     6.8400     1.1586     0.3408     0.2961 2.5401e+02     9.3161     -0.273     -0.395     7.0138 0.0000e+00
     -0.278     -0.009     8.5070     66.853     37.885  24.296829     6.8400     1.1586     0.3408     0.2961 2.2776e+02     9.3462     -0.273     -0.395     7.0227 0.0000e+00
     -0.282     -0.021     8.3987     66.187     37.859  24.286613     6.8400     0.9755     0.3408     0.2961 2.3362e+02     9.4815     -0.277     -0.401     7.0328 0.0000e+00
     -0.290     -0.031     8.2931     65.597     37.832  24.274871     6.8400     0.9870     0.3408     0.2961 2.6697e+02     9.3763     -0.285     -0.412     7.0440 0.0000e+00
     -0.301     -0.038     8.1933     65.072     37.811  24.266389     6.9300     0.9679     0.3408     0.1692 2.7828e+02     9.3161     -0.295     -0.428     7.0551 0.0000e+00
     -0.314     -0.041     8.1014     64.613     37.798  24.262866     6.9300     0.9832     0.3408     0.1692 2.8132e+02     9.4364     -0.308     -0.446     7.0650 0.0000e+00
     -0.327     -0.040     8.0191     64.218     37.793  24.263361     6.9300     0.8611     0.3408     0.1692 2.8913e+02     9.3462     -0.321     -0.465     7.0732 0.0000e+00
     -0.339     -0.034     7.9460     63.884     37.795  24.268007     6.9300     0.8725     0.3408     0.1692 3.1614e+02     9.3312     -0.333     -0.482     7.0805 0.0000e+00
     -0.349     -0.025     7.8811     63.602     37.796  24.274083     6.9300     0.8344     0.3408     0.1692 3.3241e+02     9.3612     -0.342     -0.496     7.0877 0.0000e+00
     -0.355     -0.015     7.8242     63.366     37.787  24.279251     6.8400     0.8344     0.2982     0.2961 3.4552e+02     9.4364     -0.348     -0.504     7.0940 0.0000e+00
     -0.356     -0.005     7.7755     63.172     37.767  24.284888     6.8400     0.9793     0.2982     0.2961 3.3832e+02     9.3462     -0.349     -0.506     7.0986 0.0000e+00
     -0.354      0.004     7.7342     63.011     37.736  24.288540     6.8400     0.9870     0.2982     0.2961 3.3898e+02     9.4063     -0.347     -0.504     7.1029 0.0000e+00
     -0.351      0.011     7.6987     62.871     37.697  24.287223     6.8400     0.9946     0.2982     0.2961 3.3846e+02     9.3612     -0.344     -0.499     7.1103 0.0000e+00
     -0.346      0.015     7.6674     62.738     37.661  24.284546     6.9300     0.9755     0.3408     0.2538 3.3876e+02     9.5115     -0.339     -0.492     7.1249 0.0000e+00
     -0.341      0.018     7.6393     62.601     37.636  24.283754     6.9300     0.9832     0.3408     0.2538 3.4053e+02     9.6318     -0.335     -0.485     7.1490 0.0000e+00
     -0.336      0.019     7.6139     62.452     37.622  24.284637     6.9300     0.9793     0.3408     0.2538 3.3736e+02     9.6618     -0.330     -0.478     7.1802 0.0000e+00
     -0.332      0.019     7.5910     62.294     37.617  24.287430     6.9300     0.9793     0.3408     0.2538 3.3459e+02     9.6167     -0.325     -0.471     7.2122 0.0000e+00
     -0.327      0.019     7.5698     62.136     37.620  24.292878     6.8400     0.9717     0.2982     0.2538 3.3299e+02     9.5717     -0.320     -0.464     7.2395 0.0000e+00
     -0.321      0.019     7.5494     61.981     37.626  24.298475     6.8400     1.0251     0.2982     0.2538 3.3372e+02     9.4364     -0.315     -0.457     7.2599 0.0000e+00
     -0.316      0.019     7.5289     61.825     37.629  24.301754     6.8400     1.0366     0.2982     0.2538 3.3408e+02     9.4514     -0.310     -0.450     7.2734 0.0000e+00
     -0.312      0.019     7.5084     61.669     37.636  24.307548     6.8400     1.0404     0.2982     0.2538 3.3241e+02     9.3763     -0.306     -0.443     7.2813 0.0000e+00
     -0.307      0.019     7.4886     61.513     37.649  24.317404     6.9300     1.0366     0.3408     0.2961 3.3212e+02     9.4063     -0.301     -0.437     7.2855 0.0000e+00
     -0.303      0.019     7.4695     61.352     37.659  24.326030     6.9300     1.0442     0.3408     0.2961 3.3205e+02     9.3612     -0.297     -0.431     7.2877 0.0000e+00
     -0.298      0.020     7.4504     61.186     37.665  24.331768     6.9300     1.0251     0.3408     0.2961 3.3040e+02     9.5115     -0.292     -0.424     7.2893 0.0000e+00
     -0.294      0.021     7.4313     61.020     37.670  24.336149     6.9300     1.0594     0.3408     0.2961 3.2590e+02     9.3462     -0.288     -0.417     7.2911 0.0000e+00
     -0.288      0.023     7.4121     60.852     37.671  24.336382     6.9300     1.0213     0.3408     0.2961 3.2676e+02     9.4364     -0.283     -0.410     7.2934 0.0000e+00
     -0.282      0.026     7.3922     60.687     37.661  24.328570     6.8400     1.0938     0.3408     0.3384 3.2683e+02     9.3763     -0.277     -0.401     7.2960 0.0000e+00
     -0.275      0.029     7.3718     60.532     37.645  24.314589     6.8400     1.0633     0.3408     0.3384 3.2336e+02     9.3161     -0.270     -0.392     7.2983 0.0000e+00
     -0.268      0.032     7.3515     60.386     37.625  24.294670     6.8400     1.1014     0.3408     0.3384 3.2161e+02     9.4063     -0.262     -0.381     7.2997 0.0000e+00
     -0.259      0.035     7.3312     60.249     37.592  24.259542     6.8400     1.0823     0.3408     0.3384 3.1532e+02     9.3462     -0.254     -0.368     7.2999 0.0000e+00
     -0.250      0.039     7.3117     60.129     37.525  24.191919     6.9300     1.1510     0.3408     0.2538 3.1395e+02     9.4364     -0.245     -0.355     7.2981 0.0000e+00
     -0.240      0.043     7.2939     60.038     37.420  24.081688     6.9300     1.1586     0.3408     0.2538 3.0428e+02     9.3763     -0.235     -0.341     7.2931 0.0000e+00
     -0.229      0.048     7.2782     60.013     37.331  23.956857     6.9300     1.1663     0.3408     0.2538 3.0633e+02     9.3462     -0.224     -0.326     7.2830 0.0000e+00
     -0.217      0.054     7.2650     60.189     37.319  23.863314     6.9300     1.1815     0.3408     0.2538 3.0243e+02     9.3913     -0.213     -0.309     7.2646 0.0000e+00
     -0.203      0.061     7.2566     60.841     37.363  23.805802     6.9300     1.2464     0.2982     0.1692 2.8900e+02     9.7069     -0.199     -0.289     7.2318 0.0000e+00
     -0.187      0.068     7.2561     62.307     37.412  23.765022     6.9300     1.2197     0.2982     0.1692 2.8205e+02     9.6919     -0.184     -0.266     7.1751 0.0000e+00
     -0.168      0.074     7.2695     64.814     37.448  23.734057     6.9300     1.2311     0.2982     0.1692 2.1126e+02     9.6318     -0.165     -0.240     7.0856 0.0000e+00
     -0.147      0.080     7.3122     68.359     37.467  23.708605     6.9300     1.2159     0.2982     0.1692 1.3453e+02     9.6017     -0.145     -0.210     6.9709 0.0000e+00
     -0.125      0.085     7.4132     72.730     37.477  23.689798     6.9300     1.3417     0.2982     0.2538 1.3573e+02     9.5115     -0.123     -0.178     6.8558 0.0000e+00
     -0.102      0.087     7.6103     77.569     37.496  23.684497     6.9300     1.3379     0.2982     0.2538 1.1724e+02     9.6017     -0.101     -0.146     6.7599 0.0000e+00
     -0.079      0.088     7.9309     82.428     37.518  23.687328     6.9300     1.3417     0.2982     0.2538 9.4095e+01     9.5115     -0.078     -0.113     6.6883 0.0000e+00
     -0.056      0.087     8.3750     86.847     37.529  23.687169     6.9300     1.3417     0.2982     0.2538 7.2481e+01     9.7220     -0.055     -0.080     6.6380 0.0000e+00
     -0.033      0.084     8.9178     90.443     37.530  23.683979     6.9300     1.4257     0.2982     0.2538 5.9476e+01     9.3763     -0.033     -0.047     6.6038 0.0000e+00
     -0.011      0.081     9.5161     93.005     37.529  23.680865     6.9300     1.3875     0.3408     0.2961 5.9438e+01     9.3011     -0.012     -0.016     6.5810 0.0000e+00
      0.009      0.076    10.1153     94.540     37.526  23.676997     6.9300     1.3913     0.3408     0.2961 5.7295e+01     9.3763      0.008      0.012     6.5663 0.0000e+00
      0.027      0.071    10.6595     95.207     37.525  23.675303     6.9300     1.4295     0.3408     0.2961 5.1040e+01     9.4364      0.027      0.039     6.5571 0.0000e+00
      0.044      0.067    11.1021     95.217     37.525  23.675330     6.9300     1.3875     0.3408     0.2961 4.7097e+01     9.3011      0.044      0.063     6.5515 0.0000e+00
      0.060      0.065    11.4174     94.781     37.522  23.673127     6.9300     1.4219     0.3408     0.3384 4.7148e+01     9.3312      0.059      0.086     6.5480 0.0000e+00
      0.075      0.065    11.6062     94.078     37.520  23.672066     6.9300     1.4142     0.3408     0.3384 3.9832e+01     9.4514      0.074      0.107     6.5458 0.0000e+00
      0.090      0.068    11.6883     93.226     37.526  23.675822     6.9300     1.4219     0.3408     0.3384 3.7783e+01     9.3462      0.089      0.129     6.5446 0.0000e+00
      0.107      0.074    11.6896     92.301     37.537  23.681439     6.9300     1.2654     0.3408     0.3384 4.0866e+01     9.7670      0.105      0.152     6.5442 0.0000e+00
      0.125      0.080    11.6360     91.359     37.547  23.686455     6.9300     1.2960     0.2982     0.1269 3.9001e+01     9.5717      0.123      0.178     6.5443 0.0000e+00
      0.147      0.086    11.5496     90.439     37.559  23.692208     6.9300     1.2693     0.2982     0.1269 3.5770e+01     9.5717      0.144      0.209     6.5446 0.0000e+00
      0.172      0.090    11.4451     89.566     37.568  23.696272     6.9300     1.2769     0.2982     0.1269 3.4293e+01     9.5266      0.169      0.245     6.5444 0.0000e+00
      0.199      0.090    11.3319     88.749     37.568  23.695772     6.9300     1.2883     0.2982     0.1269 3.2885e+01     9.6318      0.195      0.283     6.5430 0.0000e+00
      0.225      0.087    11.2168     87.982     37.559  23.690576     6.9300     1.4676     0.2982     0.1269 3.1281e+01     9.5416      0.221      0.320     6.5406 0.0000e+00
      0.247      0.080    11.1045     87.265     37.553  23.687215     6.9300     1.4562     0.2982     0.2115 3.0809e+01     9.6919      0.243      0.352     6.5381 0.0000e+00
      0.266      0.072    10.9979     86.604     37.559  23.692711     6.9300     1.4676     0.2982     0.2115 3.1065e+01     9.6468      0.261      0.379     6.5362 0.0000e+00
      0.282      0.064    10.8977     86.004     37.570  23.700611     6.9300     1.4600     0.2982     0.2115 2.9537e+01     9.6318      0.277      0.401     6.5354 0.0000e+00
      0.295      0.057    10.8036     85.468     37.575  23.705105     6.9300     1.4600     0.2982     0.2115 2.8859e+01     9.3763      0.290      0.421     6.5357 0.0000e+00
      0.308      0.053    10.7152     84.995     37.582  23.711351     6.9300     1.4714     0.2982     0.3807 3.0456e+01     9.4063      0.302      0.439     6.5369 0.0000e+00
      0.321      0.050    10.6335     84.588     37.596  23.721013     6.9300     1.4638     0.2982     0.3807 2.8646e+01     9.4364      0.315      0.456     6.5385 0.0000e+00
      0.333      0.049    10.5594     84.253     37.606  23.728750     6.9300     1.4714     0.2982     0.3807 2.8454e+01     9.4063      0.327      0.474     6.5403 0.0000e+00
      0.346      0.049    10.4932     83.985     37.605  23.728709     6.9300     1.4676     0.2982     0.3807 2.9288e+01     9.3462      0.339      0.492     6.5422 0.0000e+00
      0.358      0.049    10.4347     83.777     37.586  23.716919     6.9300     1.4524     0.3408     0.3384 2.8890e+01     9.4214      0.351      0.509     6.5440 0.0000e+00
      0.370      0.051    10.3843     83.617     37.563  23.702112     6.9300     1.4295     0.3408     0.3384 2.9977e+01     9.4815      0.363      0.526     6.5457 0.0000e+00
      0.382      0.052    10.3426     83.487     37.555  23.696176     6.9300     1.4714     0.3408     0.3384 2.9117e+01     9.3763      0.375      0.544     6.5473 0.0000e+00
      0.396      0.055    10.3094     83.376     37.560  23.697528     6.9300     1.4295     0.3408     0.3384 2.8746e+01     9.7069      0.388      0.563     6.5485 0.0000e+00
      0.410      0.056    10.2837     83.279     37.564  23.698610     6.9300     1.3875     0.2982     0.2961 2.6926e+01     9.6769      0.402      0.584     6.5491 0.0000e+00
      0.425      0.057    10.2642     83.186     37.568  23.699711     6.9300     1.3990     0.2982     0.2961 2.7583e+01     9.5115      0.417      0.605     6.5486 0.0000e+00
      0.441      0.058    10.2488     83.090     37.584  23.709042     6.9300     1.4409     0.2982     0.2961 2.6571e+01     9.5717      0.433      0.628     6.5469 0.0000e+00
      0.457      0.057    10.2357     82.993     37.604  23.721174     6.9300     1.3379     0.2982     0.2961 2.4243e+01     9.4815      0.448      0.650     6.5446 0.0000e+00
      0.471      0.055    10.2244     82.905     37.607  23.723506     6.9300     1.3570     0.2982     0.2961 2.6774e+01     9.4815      0.462      0.670     6.5423 0.0000e+00
      0.485      0.054    10.2134     82.837     37.595  23.716660     6.9300     1.3494     0.2982     0.1692 2.4840e+01     9.4063      0.476      0.690     6.5406 0.0000e+00
      0.498      0.052    10.2019     82.801     37.572  23.702770     6.9300     1.3341     0.2982     0.1692 2.5309e+01     9.5115      0.488      0.708     6.5396 0.0000e+00
      0.510      0.051    10.1901     82.801     37.550  23.690008     6.9300     1.4447     0.2982     0.1692 2.5359e+01     9.3462      0.501      0.726     6.5393 0.0000e+00
      0.523      0.050    10.1792     82.828     37.544  23.686847     6.9300     1.4524     0.2982     0.1692 2.5232e+01     9.2861      0.513      0.744     6.5397 0.0000e+00
      0.536      0.049    10.1705     82.875     37.545  23.688486     6.8400     1.4638     0.2982     0.2961 2.5658e+01     9.3913      0.526      0.763     6.5407 0.0000e+00
      0.550      0.048    10.1658     82.933     37.549  23.691404     6.8400     1.4524     0.2982     0.2961 2.4727e+01     9.3612      0.539      0.782     6.5418 0.0000e+00
      0.562      0.046    10.1655     82.985     37.549  23.692419     6.8400     1.3532     0.2982     0.2961 2.4738e+01     9.4063      0.552      0.800     6.5428 0.0000e+00
      0.574      0.043    10.1686     83.015     37.546  23.691801     6.8400     1.3227     0.2982     0.2961 2.5753e+01     9.4664      0.563      0.816     6.5438 0.0000e+00
      0.584      0.041    10.1741     83.013     37.546  23.693346     6.9300     1.3417     0.3408     0.2115 2.5128e+01     9.3462      0.573      0.831     6.5449 0.0000e+00
      0.594      0.038    10.1809     82.977     37.545  23.693506     6.9300     1.3379     0.3408     0.2115 2.5232e+01     9.4214      0.582      0.845     6.5461 0.0000e+00
      0.603      0.036    10.1869     82.915     37.541  23.692325     6.9300     1.3646     0.3408     0.2115 2.5691e+01     9.7069      0.591      0.857     6.5474 0.0000e+00
      0.611      0.035    10.1903     82.842     37.547  23.697404     6.9300     1.3417     0.3408     0.2115 2.4889e+01     9.6318      0.600      0.870     6.5489 0.0000e+00
      0.620      0.034    10.1896     82.770     37.566  23.710099     6.8400     1.3074     0.2982     0.3384 2.5826e+01     9.7069      0.608      0.882     6.5505 0.0000e+00
      0.629      0.033    10.1848     82.711     37.591  23.725877     6.8400     1.3150     0.2982     0.3384 2.4770e+01     9.6618      0.617      0.895     6.5522 0.0000e+00
      0.637      0.032    10.1767     82.674     37.608  23.737068     6.8400     1.3990     0.2982     0.3384 2.4754e+01     9.4364      0.625      0.907     6.5538 0.0000e+00
      0.646      0.031    10.1673     82.665     37.604  23.734781     6.8400     1.4180     0.2982     0.3384 2.5112e+01     9.2861      0.633      0.918     6.5552 0.0000e+00
      0.653      0.030    10.1584     82.675     37.585  23.722364     6.8400     1.3951     0.2982     0.3384 2.4738e+01     9.3763      0.641      0.929     6.5561 0.0000e+00
      0.660      0.029    10.1510     82.698     37.569  23.712341     6.8400     1.4180     0.3408     0.2115 2.5161e+01     9.3161      0.648      0.939     6.5566 0.0000e+00
      0.667      0.029    10.1464     82.729     37.565  23.709958     6.8400     1.3379     0.3408     0.2115 2.5353e+01     9.4364      0.654      0.949     6.5568 0.0000e+00
      0.674      0.029    10.1453     82.761     37.567  23.710621     6.8400     1.3646     0.3408     0.2115 2.5112e+01     9.3161      0.661      0.958     6.5569 0.0000e+00
      0.681      0.030    10.1465     82.793     37.568  23.710546     6.8400     1.3341     0.3408     0.2115 2.5955e+01     9.4063      0.668      0.969     6.5570 0.0000e+00
      0.688      0.031    10.1493     82.825     37.569  23.709715     6.9300     1.3303     0.3408     0.3807 2.5281e+01     9.4214      0.675      0.979     6.5570 0.0000e+00
      0.697      0.033    10.1531     82.856     37.568  23.707906     6.9300     1.3723     0.3408     0.3807 2.5904e+01     9.3763      0.683      0.991     6.5569 0.0000e+00
      0.705      0.034    10.1572     82.880     37.566  23.704635     6.9300     1.3608     0.3408     0.3807 2.5441e+01     9.3612      0.692      1.003     6.5564 0.0000e+00
      0.715      0.036    10.1614     82.889     37.559  23.699031     6.9300     1.3379     0.3408     0.3807 2.5486e+01     9.4514      0.701      1.016     6.5553 0.0000e+00
      0.724      0.037    10.1658     82.884     37.551  23.693559     6.8400     1.3570     0.3408     0.3384 2.5904e+01     9.5416      0.710      1.030     6.5535 0.0000e+00
      0.734      0.038    10.1702     82.867     37.547  23.690717     6.8400     1.4219     0.3408     0.3384 2.5602e+01     9.3612      0.720      1.044     6.5515 0.0000e+00
      0.744      0.039    10.1736     82.843     37.546  23.689747     6.8400     1.4447     0.3408     0.3384 2.6068e+01     9.3913      0.729      1.058     6.5494 0.0000e+00
      0.753      0.040    10.1751     82.813     37.547  23.690393     6.8400     1.4219     0.3408     0.3384 2.6233e+01     9.3913      0.739      1.072     6.5478 0.0000e+00
      0.764      0.040    10.1747     82.776     37.544  23.688865     6.9300     1.4104     0.3408     0.3384 2.6250e+01     9.3462      0.749      1.086     6.5469 0.0000e+00
      0.774      0.040    10.1728     82.733     37.538  23.684758     6.9300     1.4638     0.3408     0.3384 2.5641e+01     9.3763      0.759      1.101     6.5466 0.0000e+00
      0.785      0.040    10.1697     82.686     37.533  23.680935     6.9300     1.4714     0.3408     0.3384 2.6193e+01     9.4664      0.769      1.116     6.5465 0.0000e+00
      0.796      0.039    10.1661     82.632     37.526  23.676377     6.9300     1.4295     0.3408     0.3384 2.6301e+01     9.4214      0.780      1.131     6.5464 0.0000e+00
      0.806      0.038    10.1617     82.572     37.524  23.673826     6.9300     1.4409     0.3408     0.3384 2.6307e+01     9.3763      0.790      1.146     6.5462 0.0000e+00
      0.815      0.037    10.1564     82.511     37.530  23.676561     6.9300     1.3456     0.3408     0.3384 2.6641e+01     9.3913      0.799      1.159     6.5460 0.0000e+00
      0.824      0.036    10.1507     82.455     37.546  23.685313     6.9300     1.3684     0.3408     0.3384 2.6244e+01     9.3462      0.808      1.172     6.5456 0.0000e+00
      0.833      0.035    10.1444     82.413     37.569  23.698455     6.9300     1.3341     0.3408     0.3384 2.6903e+01     9.3462      0.816      1.184     6.5448 0.0000e+00
      0.841      0.035    10.1373     82.390     37.592  23.711574     6.9300     1.3494     0.3408     0.3384 2.6838e+01     9.3312      0.824      1.196     6.5436 0.0000e+00
      0.849      0.036    10.1302     82.387     37.607  23.720252     6.9300     1.2960     0.3408     0.2538 2.6324e+01     9.3462      0.833      1.208     6.5419 0.0000e+00
      0.859      0.038    10.1238     82.404     37.606  23.718883     6.9300     1.2921     0.3408     0.2538 2.6307e+01     9.4063      0.842      1.221     6.5400 0.0000e+00
      0.868      0.040    10.1191     82.433     37.595  23.711063     6.9300     1.2731     0.3408     0.2538 2.6658e+01     9.4364      0.852      1.235     6.5382 0.0000e+00
      0.879      0.041    10.1166     82.461     37.589  23.706582     6.9300     1.2883     0.3408     0.2538 2.6159e+01     9.4063      0.862      1.250     6.5366 0.0000e+00
      0.890      0.043    10.1166     82.482     37.580  23.700286     6.9300     1.3074     0.2982     0.2961 2.6210e+01     9.3913      0.872      1.266     6.5353 0.0000e+00
      0.901      0.044    10.1190     82.498     37.552  23.682580     6.9300     1.3074     0.2982     0.2961 2.6204e+01     9.3763      0.883      1.282     6.5343 0.0000e+00
      0.913      0.046    10.1228     82.513     37.518  23.660617     6.9300     1.2921     0.2982     0.2961 2.5938e+01     9.3763      0.895      1.299     6.5334 0.0000e+00
      0.925      0.047    10.1264     82.529     37.500  23.648336     6.9300     1.2616     0.2982     0.2961 2.5775e+01     9.4364      0.907      1.315     6.5327 0.0000e+00
      0.937      0.048    10.1292     82.546     37.499  23.646421     6.9300     1.4104     0.2982     0.2961 2.5608e+01     9.4063      0.918      1.332     6.5321 0.0000e+00
      0.949      0.049    10.1313     82.565     37.501  23.646442     6.9300     1.3761     0.3408     0.2115 2.5758e+01     9.4063      0.930      1.349     6.5317 0.0000e+00
      0.961      0.051    10.1333     82.589     37.505  23.648405     6.9300     1.4219     0.3408     0.2115 2.5932e+01     9.3763      0.943      1.367     6.5312 0.0000e+00
      0.975      0.052    10.1355     82.617     37.520  23.656793     6.9300     1.4180     0.3408     0.2115 2.5052e+01     9.3763      0.956      1.386     6.5300 0.0000e+00
      0.988      0.052    10.1380     82.639     37.536  23.665924     6.9300     1.2921     0.3408     0.2115 2.5106e+01     9.3462      0.969      1.406     6.5283 0.0000e+00
      1.002      0.053    10.1407     82.652     37.543  23.670316     6.9300     1.2807     0.3408     0.3807 2.5381e+01     9.3763      0.983      1.425     6.5265 0.0000e+00
      1.016      0.052    10.1441     82.663     37.551  23.675099     6.9300     1.2807     0.3408     0.3807 2.4959e+01     9.3312      0.996      1.445     6.5250 0.0000e+00
      1.029      0.052    10.1478     82.675     37.561  23.681549     6.9300     1.2540     0.3408     0.3807 2.4497e+01     9.3763      1.010      1.464     6.5238 0.0000e+00
      1.042      0.051    10.1506     82.693     37.563  23.683466     6.9300     1.3494     0.3408     0.3807 2.4690e+01     9.4063      1.022      1.483     6.5231 0.0000e+00
      1.055      0.050    10.1524     82.716     37.553  23.677405     6.9300     1.3379     0.3408     0.2961 2.5150e+01     9.3161      1.035      1.500     6.5227 0.0000e+00
      1.067      0.050    10.1537     82.746     37.540  23.669667     6.9300     1.3608     0.3408     0.2961 2.4658e+01     9.3763      1.047      1.518     6.5227 0.0000e+00
      1.080      0.050    10.1551     82.779     37.535  23.666105     6.9300     1.3570     0.3408     0.2961 2.4280e+01     9.3161      1.059      1.536     6.5229 0.0000e+00
      1.093      0.050    10.1573     82.810     37.536  23.665770     6.9300     1.3494     0.3408     0.2961 2.4175e+01     9.6318      1.072      1.554     6.5234 0.0000e+00
      1.106      0.050    10.1601     82.834     37.542  23.668573     6.9300     1.3150     0.2982     0.2961 2.4117e+01     9.6167      1.084      1.573     6.5238 0.0000e+00
      1.119      0.050    10.1636     82.848     37.547  23.671302     6.9300     1.3646     0.2982     0.2961 2.3650e+01     9.6318      1.097      1.591     6.5238 0.0000e+00
      1.131      0.050    10.1678     82.850     37.547  23.670725     6.9300     1.3494     0.2982     0.2961 2.3686e+01     9.6618      1.110      1.609     6.5234 0.0000e+00
      1.144      0.049    10.1718     82.837     37.542  23.666690     6.9300     1.4638     0.2982     0.2961 2.3820e+01     9.6017      1.122      1.627     6.5225 0.0000e+00
      1.157      0.049    10.1750     82.812     37.535  23.662078     6.9300     1.4333     0.2982     0.2961 2.3939e+01     9.6017      1.135      1.646     6.5214 0.0000e+00
      1.170      0.048    10.1771     82.776     37.538  23.663578     6.9300     1.4981     0.3408     0.3807 2.3379e+01     9.5115      1.147      1.664     6.5204 0.0000e+00
      1.182      0.047    10.1775     82.728     37.551  23.671589     6.9300     1.4714     0.3408     0.3807 2.3237e+01     9.6318      1.159      1.681     6.5195 0.0000e+00
      1.193      0.046    10.1761     82.669     37.559  23.676371     6.9300     1.2921     0.3408     0.3807 2.3862e+01     9.3763      1.170      1.697     6.5187 0.0000e+00
      1.205      0.045    10.1732     82.610     37.557  23.675242     6.9300     1.2654     0.3408     0.3807 2.3172e+01     9.4214      1.181      1.713     6.5182 0.0000e+00
      1.216      0.043    10.1689     82.559     37.557  23.675816     6.9300     1.3036     0.3408     0.2115 2.2901e+01     9.4364      1.193      1.730     6.5178 0.0000e+00
      1.227      0.041    10.1630     82.525     37.560  23.678248     6.9300     1.2654     0.3408     0.2115 2.3116e+01     9.3612      1.204      1.746     6.5176 0.0000e+00
      1.238      0.038    10.1558     82.511     37.561  23.679228     6.9300     1.2769     0.3408     0.2115 2.3152e+01     9.4364      1.215      1.761     6.5176 0.0000e+00
      1.248      0.034    10.1485     82.516     37.559  23.679015     6.9300     1.3074     0.3408     0.2115 2.3252e+01     9.3763      1.224      1.775     6.5178 0.0000e+00
      1.256      0.029    10.1422     82.538     37.555  23.677554     6.9300     1.2731     0.2982     0.2115 2.2649e+01     9.4364      1.232      1.787     6.5181 0.0000e+00
      1.263      0.025    10.1378     82.568     37.553  23.678415     6.9300     1.2845     0.2982     0.2115 2.2733e+01     9.4063      1.239      1.796     6.5187 0.0000e+00
      1.268      0.020    10.1358     82.597     37.555  23.681826     6.9300     1.2616     0.2982     0.2115 2.3344e+01     9.3913      1.244      1.804     6.5196 0.0000e+00
      1.272      0.016    10.1362     82.618     37.549  23.680779     6.9300     1.2998     0.2982     0.2115 2.2872e+01     9.3763      1.248      1.810     6.5209 0.0000e+00
      1.276      0.013    10.1384     82.633     37.536  23.674995     6.9300     1.2921     0.3408     0.2538 2.2763e+01     9.3462      1.251      1.814     6.5226 0.0000e+00
      1.278      0.010    10.1415     82.646     37.526  23.670851     6.9300     1.3036     0.3408     0.2538 2.3655e+01     9.3312      1.254      1.818     6.5248 0.0000e+00
      1.280      0.008    10.1443     82.659     37.518  23.667240     6.9300     1.4714     0.3408     0.2538 2.3512e+01     9.3612      1.256      1.821     6.5278 0.0000e+00
      1.282      0.007    10.1460     82.668     37.517  23.667159     6.9300     1.4638     0.3408     0.2538 2.3364e+01     9.4815      1.257      1.823     6.5314 0.0000e+00
      1.283      0.005    10.1469     82.666     37.529  23.674545     6.9300     1.4409     0.3408     0.2538 2.3142e+01     9.3161      1.259      1.825     6.5349 0.0000e+00
      1.284      0.005    10.1479     82.656     37.538  23.679491     6.9300     1.4791     0.3408     0.2538 2.4572e+01     9.3612      1.260      1.827     6.5376 0.0000e+00
      1.285      0.004    10.1491     82.643     37.546  23.683316     6.9300     1.5020     0.3408     0.2538 2.5381e+01     9.4063      1.261      1.828     6.5391 0.0000e+00
      1.286      0.003    10.1499     82.632     37.554  23.687040     6.9300     1.4638     0.3408     0.2538 2.4840e+01     9.4063      1.261      1.830     6.5396 0.0000e+00
      1.287      0.003    10.1498     82.627     37.558  23.687697     6.9300     1.4714     0.3408     0.2538 2.4380e+01     9.4364      1.262      1.831     6.5395 0.0000e+00
      1.288      0.002    10.1488     82.632     37.563  23.689420     6.9300     1.4333     0.3408     0.2961 2.4212e+01     9.4364      1.263      1.832     6.5387 0.0000e+00
      1.288      0.002    10.1475     82.650     37.563  23.688712     6.9300     1.2731     0.3408     0.2961 2.4497e+01     9.4214      1.264      1.833     6.5373 0.0000e+00
      1.289      0.002    10.1466     82.682     37.565  23.689341     6.9300     1.2769     0.3408     0.2961 2.3913e+01     9.3462      1.264      1.833     6.5355 0.0000e+00
      1.289      0.002    10.1465     82.718     37.575  23.695434     6.9300     1.2807     0.3408     0.2961 2.3789e+01     9.3161      1.264      1.834     6.5335 0.0000e+00
      1.290      0.003    10.1476     82.747     37.583  23.700698     6.9300     1.2807     0.2982     0.1692 2.4830e+01     9.4214      1.265      1.834     6.5316 0.0000e+00
      1.290      0.003    10.1503     82.764     37.585  23.702579     6.9300     1.2311     0.2982     0.1692 2.3851e+01     9.3161      1.265      1.835     6.5301 0.0000e+00
      1.291      0.004    10.1544     82.772     37.581  23.701577     6.9300     1.2120     0.2982     0.1692 2.5106e+01     9.4063      1.266      1.836     6.5293 0.0000e+00
      1.292      0.004    10.1588     82.778     37.578  23.701385     6.9300     1.1968     0.2982     0.1692 2.4529e+01     9.3763      1.267      1.838     6.5292 0.0000e+00
      1.293      0.005    10.1622     82.784     37.582  23.705910     6.9300     1.2502     0.2982     0.2115 2.5502e+01     9.5115      1.268      1.840     6.5296 0.0000e+00
      1.295      0.007    10.1641     82.793     37.583  23.708441     6.9300     1.4371     0.2982     0.2115 2.5730e+01     9.3161      1.270      1.842     6.5307 0.0000e+00
      1.296      0.008    10.1647     82.806     37.577  23.705695     6.9300     1.4066     0.2982     0.2115 2.4813e+01     9.3612      1.271      1.844     6.5325 0.0000e+00
      1.298      0.010    10.1648     82.821     37.574  23.704857     6.9300     1.3875     0.2982     0.2115 2.4943e+01     9.4364      1.273      1.847     6.5348 0.0000e+00
      1.301      0.013    10.1649     82.827     37.569  23.701744     6.9300     1.4447     0.2982     0.2115 2.4949e+01     9.3312      1.276      1.851     6.5373 0.0000e+00
      1.304      0.017    10.1654     82.818     37.554  23.691567     6.9300     1.4791     0.3408     0.3807 2.4808e+01     9.4364      1.279      1.855     6.5395 0.0000e+00
      1.309      0.022    10.1664     82.799     37.543  23.683490     6.9300     1.4638     0.3408     0.3807 2.5474e+01     9.3161      1.283      1.861     6.5415 0.0000e+00
      1.314      0.027    10.1679     82.775     37.546  23.683276     6.9300     1.4447     0.3408     0.3807 2.4916e+01     9.4815      1.289      1.870     6.5428 0.0000e+00
      1.322      0.033    10.1686     82.754     37.554  23.686909     6.9300     1.4600     0.3408     0.3807 2.4301e+01     9.3763      1.296      1.880     6.5430 0.0000e+00
      1.331      0.039    10.1678     82.746     37.558  23.687440     6.9300     1.4753     0.3408     0.2961 2.5831e+01     9.5867      1.306      1.894     6.5420 0.0000e+00
      1.342      0.045    10.1660     82.752     37.550  23.681051     6.9300     1.4676     0.3408     0.2961 2.4164e+01     9.7220      1.316      1.909     6.5401 0.0000e+00
      1.354      0.050    10.1636     82.770     37.535  23.669998     6.9300     1.4753     0.3408     0.2961 2.3934e+01     9.7370      1.328      1.926     6.5378 0.0000e+00
      1.368      0.056    10.1617     82.795     37.526  23.663210     6.9300     1.4371     0.3408     0.2961 2.4206e+01     9.6468      1.342      1.946     6.5353 0.0000e+00
      1.383      0.060    10.1613     82.808     37.526  23.662836     6.9300     1.3532     0.3408     0.3384 2.5585e+01     9.5115      1.356      1.967     6.5330 0.0000e+00
      1.399      0.065    10.1626     82.797     37.524  23.660858     6.9300     1.3303     0.3408     0.3384 2.3645e+01     9.3913      1.372      1.990     6.5309 0.0000e+00
      1.417      0.070    10.1653     82.773     37.524  23.660708     6.9300     1.3227     0.3408     0.3384 2.5112e+01     9.3913      1.389      2.015     6.5292 0.0000e+00
      1.435      0.075    10.1686     82.743     37.534  23.666304     6.9300     1.3494     0.3408     0.3384 2.4455e+01     9.2711      1.407      2.041     6.5278 0.0000e+00
      1.454      0.080    10.1705     82.707     37.542  23.671220     6.9300     1.4028     0.2982     0.2961 2.4317e+01     9.6769      1.426      2.068     6.5267 0.0000e+00
      1.475      0.085    10.1694     82.668     37.546  23.672809     6.9300     1.3951     0.2982     0.2961 2.6908e+01     9.6468      1.446      2.097     6.5260 0.0000e+00
      1.497      0.091    10.1666     82.634     37.544  23.671496     6.9300     1.4104     0.2982     0.2961 2.4101e+01     9.6468      1.468      2.130     6.5255 0.0000e+00
      1.521      0.096    10.1631     82.606     37.549  23.674846     6.9300     1.3875     0.2982     0.2961 2.5030e+01     9.6318      1.492      2.164     6.5250 0.0000e+00
      1.547      0.101    10.1587     82.586     37.570  23.687713     6.9300     1.4676     0.2982     0.2961 2.2961e+01     9.5867      1.517      2.200     6.5246 0.0000e+00
      1.574      0.104    10.1541     82.570     37.592  23.701651     6.9300     1.4714     0.3408     0.2115 2.5966e+01     9.6167      1.543      2.238     6.5242 0.0000e+00
      1.602      0.105    10.1501     82.556     37.604  23.708499     6.9300     1.4714     0.3408     0.2115 2.6410e+01     9.7069      1.570      2.278     6.5237 0.0000e+00
      1.630      0.104    10.1467     82.549     37.594  23.702168     6.9300     1.4867     0.3408     0.2115 2.4439e+01     9.7220      1.598      2.318     6.5234 0.0000e+00
      1.657      0.101    10.1442     82.557     37.567  23.684926     6.9300     1.3532     0.3408     0.2115 2.1303e+01     9.6769      1.625      2.357     6.5232 0.0000e+00
      1.683      0.097    10.1423     82.579     37.540  23.668011     6.9300     1.3379     0.2982     0.2115 2.0795e+01     9.6769      1.651      2.394     6.5231 0.0000e+00
      1.707      0.091    10.1407     82.613     37.526  23.658790     6.9300     1.3570     0.2982     0.2115 2.2807e+01     9.6468      1.674      2.429     6.5229 0.0000e+00
      1.729      0.086    10.1399     82.649     37.532  23.662721     6.9300     1.3532     0.2982     0.2115 2.1503e+01     9.6017      1.696      2.460     6.5225 0.0000e+00
      1.750      0.082    10.1409     82.679     37.555  23.676894     6.9300     1.4257     0.2982     0.2115 2.0499e+01     9.4063      1.716      2.489     6.5221 0.0000e+00
      1.769      0.079    10.1437     82.702     37.574  23.689252     6.9300     1.4142     0.3408     0.2961 2.1461e+01     9.4214      1.735      2.517     6.5218 0.0000e+00
      1.788      0.077    10.1478     82.715     37.578  23.691216     6.9300     1.3951     0.3408     0.2961 2.1828e+01     9.3913      1.754      2.543     6.5216 0.0000e+00
      1.807      0.076    10.1523     82.714     37.565  23.683307     6.9300     1.4257     0.3408     0.2961 2.0629e+01     9.4063      1.772      2.570     6.5215 0.0000e+00
      1.826      0.077    10.1560     82.699     37.552  23.675294     6.9300     1.4257     0.3408     0.2961 2.0687e+01     9.4364      1.791      2.597     6.5215 0.0000e+00
      1.846      0.077    10.1588     82.676     37.549  23.672959     6.9300     1.4257     0.3408     0.2961 1.9876e+01     9.3763      1.810      2.625     6.5214 0.0000e+00
      1.866      0.078    10.1605     82.643     37.553  23.675677     6.9300     1.3951     0.3408     0.3384 1.9243e+01     9.3913      1.830      2.654     6.5214 0.0000e+00
      1.886      0.079    10.1604     82.594     37.560  23.680216     6.9300     1.4066     0.3408     0.3384 1.9352e+01     9.4214      1.850      2.683     6.5213 0.0000e+00
      1.907      0.080    10.1586     82.540     37.560  23.679867     6.9300     1.4638     0.3408     0.3384 1.8642e+01     9.6318      1.870      2.712     6.5213 0.0000e+00
      1.927      0.081    10.1557     82.501     37.552  23.674537     6.9300     1.4333     0.3408     0.3384 1.9031e+01     9.5867      1.890      2.740     6.5213 0.0000e+00
      1.947      0.082    10.1516     82.489     37.552  23.674683     6.9300     1.4791     0.3408     0.2538 1.7978e+01     9.6318      1.910      2.770     6.5213 0.0000e+00
      1.968      0.082    10.1456     82.509     37.568  23.684301     6.9300     1.4638     0.3408     0.2538 1.7687e+01     9.6468      1.930      2.799     6.5213 0.0000e+00
      1.989      0.083    10.1390     82.557     37.578  23.690122     6.9300     1.3570     0.3408     0.2538 1.8829e+01     9.5717      1.951      2.830     6.5211 0.0000e+00
      2.011      0.083    10.1342     82.627     37.571  23.685778     6.9300     1.3494     0.3408     0.2538 1.6817e+01     9.5717      1.972      2.860     6.5210 0.0000e+00
      2.033      0.083    10.1329     82.709     37.559  23.678030     6.9300     1.3303     0.3408     0.2115 1.6417e+01     9.6468      1.993      2.891     6.5208 0.0000e+00
      2.054      0.082    10.1355     82.790     37.545  23.668770     6.9300     1.3494     0.3408     0.2115 1.6759e+01     9.6167      2.014      2.922     6.5205 0.0000e+00
      2.075      0.081    10.1415     82.852     37.530  23.659489     6.9300     1.3646     0.3408     0.2115 1.6719e+01     9.6017      2.035      2.952     6.5201 0.0000e+00
      2.096      0.080    10.1501     82.894     37.518  23.651669     6.9300     1.3379     0.3408     0.2115 1.5404e+01     9.7069      2.055      2.981     6.5196 0.0000e+00
      2.116      0.079    10.1603     82.919     37.505  23.643225     6.9300     1.3303     0.2982     0.2115 1.5367e+01     9.5717      2.075      3.009     6.5193 0.0000e+00
      2.135      0.079    10.1702     82.928     37.493  23.635866     6.9300     1.3265     0.2982     0.2115 1.5773e+01     9.6318      2.094      3.036     6.5190 0.0000e+00
      2.154      0.080    10.1780     82.924     37.493  23.635546     6.9300     1.3951     0.2982     0.2115 1.4887e+01     9.7069      2.113      3.064     6.5189 0.0000e+00
      2.174      0.083    10.1831     82.910     37.510  23.646138     6.9300     1.4066     0.2982     0.2115 1.5198e+01     9.7370      2.132      3.092     6.5188 0.0000e+00
      2.195      0.086    10.1861     82.894     37.537  23.662549     6.9300     1.4219     0.2982     0.2115 1.4891e+01     9.6318      2.153      3.122     6.5188 0.0000e+00
      2.218      0.089    10.1873     82.882     37.555  23.673320     6.9300     1.3875     0.2982     0.3384 1.4279e+01     9.7670      2.175      3.154     6.5187 0.0000e+00
      2.241      0.092    10.1868     82.871     37.555  23.673405     6.9300     1.4142     0.2982     0.3384 1.3785e+01     9.6167      2.198      3.188     6.5185 0.0000e+00
      2.266      0.095    10.1853     82.857     37.545  23.666787     6.9300     1.3951     0.2982     0.3384 1.3430e+01     9.6318      2.222      3.223     6.5181 0.0000e+00
      2.291      0.096    10.1835     82.839     37.534  23.659617     6.9300     1.4142     0.2982     0.3384 1.2893e+01     9.6017      2.247      3.259     6.5176 0.0000e+00
      2.317      0.096    10.1821     82.819     37.526  23.653943     6.9300     1.4066     0.3408     0.2538 1.2862e+01     9.6468      2.271      3.294     6.5172 0.0000e+00
      2.341      0.096    10.1809     82.791     37.523  23.652211     6.9300     1.4180     0.3408     0.2538 1.2174e+01     9.5717      2.296      3.330     6.5167 0.0000e+00
      2.366      0.096    10.1792     82.756     37.532  23.657917     6.9300     1.3875     0.3408     0.2538 1.2048e+01     9.7069      2.319      3.364     6.5163 0.0000e+00
      2.389      0.095    10.1771     82.717     37.543  23.664665     6.9300     1.3837     0.3408     0.2538 1.1912e+01     9.5717      2.343      3.398     6.5159 0.0000e+00
      2.413      0.095    10.1747     82.681     37.546  23.666338     6.9300     1.4142     0.3408     0.2961 1.1801e+01     9.5266      2.366      3.432     6.5156 0.0000e+00
      2.437      0.095    10.1714     82.659     37.548  23.667340     6.9300     1.3265     0.3408     0.2961 1.1153e+01     9.6769      2.389      3.466     6.5154 0.0000e+00
      2.461      0.096    10.1671     82.657     37.549  23.667938     6.9300     1.3494     0.3408     0.2961 1.0600e+01     9.5717      2.413      3.501     6.5151 0.0000e+00
      2.486      0.096    10.1624     82.668     37.543  23.664332     6.9300     1.3532     0.3408     0.2961 1.0966e+01     9.7069      2.438      3.536     6.5150 0.0000e+00
      2.511      0.096    10.1580     82.687     37.536  23.659521     7.0200     1.3417     0.3408     0.2115 1.0211e+01     9.5717      2.462      3.571     6.5149 0.0000e+00
      2.536      0.095    10.1553     82.715     37.537  23.660139     7.0200     1.6507     0.3408     0.2115 9.7834e+00     9.5717      2.486      3.607     6.5148 0.0000e+00
      2.560      0.093    10.1551     82.744     37.547  23.666351     7.0200     1.6507     0.3408     0.2115 9.7770e+00     9.5566      2.511      3.642     6.5148 0.0000e+00
      2.584      0.089    10.1564     82.771     37.550  23.667936     7.0200     1.6202     0.3408     0.2115 9.6504e+00     9.6919      2.534      3.676     6.5147 0.0000e+00
      2.607      0.085    10.1588     82.793     37.539  23.661359     7.0200     1.6584     0.3408     0.2115 8.9223e+00     9.5566      2.556      3.708     6.5146 0.0000e+00
      2.628      0.079    10.1622     82.808     37.532  23.656741     6.9300     1.3379     0.3408     0.3384 8.7571e+00     9.6919      2.577      3.738     6.5144 0.0000e+00
      2.648      0.073    10.1658     82.816     37.538  23.660770     6.9300     1.3570     0.3408     0.3384 8.6512e+00     9.5717      2.596      3.766     6.5143 0.0000e+00
      2.665      0.067    10.1692     82.823     37.547  23.666602     6.9300     1.3494     0.3408     0.3384 8.5021e+00     9.6017      2.614      3.791     6.5141 0.0000e+00
      2.681      0.062    10.1719     82.831     37.548  23.667875     6.9300     1.3456     0.3408     0.3384 8.3847e+00     9.5867      2.629      3.814     6.5141 0.0000e+00
      2.695      0.058    10.1738     82.843     37.543  23.664927     7.0200     1.4104     0.3408     0.2538 8.3284e+00     9.5566      2.643      3.834     6.5141 0.0000e+00
      2.708      0.056    10.1748     82.856     37.537  23.660932     7.0200     1.3951     0.3408     0.2538 8.4597e+00     9.7670      2.656      3.852     6.5142 0.0000e+00
      2.721      0.056    10.1755     82.858     37.534  23.658783     7.0200     1.4219     0.3408     0.2538 8.6362e+00     9.6919      2.668      3.870     6.5144 0.0000e+00
      2.734      0.057    10.1764     82.847     37.532  23.657908     7.0200     1.3951     0.3408     0.2538 8.4194e+00     9.6618      2.681      3.889     6.5147 0.0000e+00
      2.749      0.059    10.1778     82.831     37.539  23.662031     6.9300     1.5248     0.3408     0.2538 8.1070e+00     9.6468      2.696      3.910     6.5152 0.0000e+00
      2.765      0.062    10.1794     82.813     37.544  23.664335     6.9300     1.5020     0.3408     0.2538 7.8487e+00     9.6769      2.711      3.932     6.5154 0.0000e+00
      2.782      0.064    10.1796     82.793     37.533  23.657516     6.9300     1.5439     0.3408     0.2538 7.8266e+00     9.5566      2.728      3.956     6.5153 0.0000e+00
      2.799      0.066    10.1783     82.773     37.525  23.651632     6.9300     1.5401     0.3408     0.2538 7.5018e+00     9.6769      2.744      3.981     6.5150 0.0000e+00
      2.816      0.067    10.1764     82.764     37.521  23.649073     7.0200     1.5287     0.3408     0.1692 7.3454e+00     9.6017      2.761      4.005     6.5146 0.0000e+00
      2.833      0.068    10.1744     82.776     37.522  23.649156     7.0200     1.5172     0.3408     0.1692 7.5067e+00     9.7069      2.778      4.029     6.5141 0.0000e+00
      2.850      0.068    10.1721     82.808     37.533  23.655863     7.0200     1.4981     0.3408     0.1692 7.3374e+00     9.6618      2.795      4.054     6.5136 0.0000e+00
      2.867      0.069    10.1698     82.847     37.550  23.667023     7.0200     1.5325     0.3408     0.1692 7.0269e+00     9.6919      2.812      4.078     6.5130 0.0000e+00
      2.885      0.070    10.1688     82.875     37.567  23.677695     7.0200     1.4714     0.3408     0.1692 6.9949e+00     9.6769      2.829      4.104     6.5126 0.0000e+00
      2.903      0.071    10.1703     82.880     37.581  23.686765     7.0200     1.4600     0.3408     0.2538 6.9043e+00     9.6769      2.847      4.130     6.5122 0.0000e+00
      2.922      0.071    10.1743     82.865     37.591  23.692694     7.0200     1.4638     0.3408     0.2538 6.8060e+00     9.6318      2.865      4.156     6.5121 0.0000e+00
      2.940      0.072    10.1791     82.837     37.585  23.689143     7.0200     1.4676     0.3408     0.2538 6.5563e+00     9.6017      2.883      4.182     6.5120 0.0000e+00
      2.958      0.073    10.1825     82.808     37.569  23.679126     7.0200     1.4562     0.3408     0.2538 6.5080e+00     9.6318      2.901      4.208     6.5120 0.0000e+00
      2.977      0.073    10.1832     82.783     37.552  23.667889     6.9300     1.4371     0.2982     0.2538 6.5720e+00     9.6468      2.919      4.234     6.5120 0.0000e+00
      2.995      0.074    10.1812     82.769     37.528  23.652436     6.9300     1.4524     0.2982     0.2538 6.3089e+00     9.6618      2.937      4.260     6.5120 0.0000e+00
      3.015      0.075    10.1778     82.773     37.497  23.632605     6.9300     1.4600     0.2982     0.2538 6.1438e+00     9.7069      2.956      4.288     6.5120 0.0000e+00
      3.034      0.075    10.1743     82.794     37.469  23.614983     6.9300     1.3875     0.2982     0.2538 5.9961e+00     9.6017      2.975      4.315     6.5119 0.0000e+00
      3.054      0.075    10.1713     82.826     37.456  23.606749     7.0200     1.4066     0.2982     0.2538 5.8367e+00     9.6618      2.994      4.343     6.5118 0.0000e+00
      3.073      0.075    10.1696     82.858     37.461  23.609665     7.0200     1.4066     0.2982     0.2538 5.6877e+00     9.7220      3.013      4.371     6.5115 0.0000e+00
      3.092      0.074    10.1702     82.879     37.484  23.624509     7.0200     1.4142     0.2982     0.2538 5.5739e+00     9.6618      3.032      4.398     6.5110 0.0000e+00
      3.111      0.073    10.1729     82.882     37.513  23.643363     7.0200     1.3341     0.2982     0.2538 5.4340e+00     9.4063      3.050      4.425     6.5107 0.0000e+00
      3.129      0.071    10.1768     82.873     37.532  23.655419     6.9300     1.3494     0.3408     0.2538 5.4199e+00     9.3763      3.068      4.450     6.5108 0.0000e+00
      3.147      0.070    10.1807     82.858     37.545  23.663891     6.9300     1.3494     0.3408     0.2538 5.2472e+00     9.3161      3.086      4.476     6.5111 0.0000e+00
      3.164      0.070    10.1832     82.835     37.550  23.667081     6.9300     1.3379     0.3408     0.2538 5.0922e+00     9.4063      3.103      4.501     6.5115 0.0000e+00
      3.182      0.070    10.1835     82.806     37.542  23.661880     6.9300     1.3265     0.3408     0.2538 4.9676e+00     9.6017      3.120      4.526     6.5118 0.0000e+00
      3.200      0.070    10.1823     82.780     37.537  23.658777     6.9300     1.3837     0.3408     0.2538 4.8682e+00     9.6017      3.137      4.551     6.5121 0.0000e+00
      3.217      0.070    10.1804     82.758     37.540  23.660905     6.9300     1.3341     0.2982     0.2538 4.8062e+00     9.6769      3.155      4.576     6.5124 0.0000e+00
      3.235      0.070    10.1774     82.743     37.540  23.660912     6.9300     1.3341     0.2982     0.2538 4.6309e+00     9.6769      3.173      4.602     6.5126 0.0000e+00
      3.254      0.070    10.1738     82.740     37.537  23.658801     6.9300     1.4333     0.2982     0.2538 4.3841e+00     9.6318      3.191      4.628     6.5129 0.0000e+00
      3.272      0.070    10.1706     82.743     37.536  23.657967     6.9300     1.4791     0.2982     0.2538 4.3908e+00     9.5717      3.209      4.654     6.5130 0.0000e+00
      3.289      0.069    10.1679     82.754     37.536  23.658188     6.9300     1.4524     0.2982     0.2961 4.3566e+00     9.6318      3.226      4.679     6.5130 0.0000e+00
      3.306      0.068    10.1661     82.776     37.539  23.659523     6.9300     1.4524     0.2982     0.2961 4.2955e+00     9.6318      3.242      4.703     6.5129 0.0000e+00
      3.324      0.067    10.1657     82.799     37.544  23.662328     6.9300     1.3227     0.2982     0.2961 4.1922e+00     9.7069      3.259      4.727     6.5128 0.0000e+00
      3.341      0.065    10.1661     82.819     37.558  23.671310     6.9300     1.3379     0.2982     0.2961 4.1686e+00     9.4965      3.276      4.752     6.5127 0.0000e+00
      3.358      0.063    10.1676     82.840     37.574  23.680947     6.9300     1.3303     0.2982     0.2538 4.0322e+00     9.6017      3.293      4.776     6.5124 0.0000e+00
      3.375      0.060    10.1703     82.860     37.575  23.681932     6.9300     1.3265     0.2982     0.2538 3.8809e+00     9.6167      3.309      4.800     6.5121 0.0000e+00
      3.390      0.056    10.1733     82.885     37.570  23.678485     6.9300     1.3150     0.2982     0.2538 3.8776e+00     9.6167      3.324      4.821     6.5117 0.0000e+00
      3.403      0.052    10.1758     82.913     37.555  23.669688     6.9300     1.3646     0.2982     0.2538 3.9619e+00     9.7370      3.338      4.841     6.5114 0.0000e+00
      3.416      0.048    10.1783     82.936     37.535  23.657154     6.9300     1.3608     0.2982     0.2538 3.8290e+00     9.6017      3.350      4.859     6.5113 0.0000e+00
      3.427      0.045    10.1809     82.945     37.528  23.653376     6.9300     1.3417     0.3408     0.2961 3.7720e+00     9.6769      3.361      4.875     6.5113 0.0000e+00
      3.438      0.042    10.1838     82.938     37.533  23.657347     6.9300     1.2731     0.3408     0.2961 3.8591e+00     9.3763      3.371      4.890     6.5115 0.0000e+00
      3.448      0.041    10.1872     82.916     37.534  23.658249     6.9300     1.2807     0.3408     0.2961 3.8265e+00     9.3763      3.381      4.904     6.5118 0.0000e+00
      3.457      0.041    10.1899     82.880     37.530  23.656322     6.9300     1.2731     0.3408     0.2961 3.7794e+00     9.3763      3.390      4.917     6.5123 0.0000e+00
      3.467      0.041    10.1909     82.830     37.526  23.655012     6.9300     1.2731     0.2982     0.3384 3.7418e+00     9.3312      3.400      4.931     6.5130 0.0000e+00
      3.478      0.042    10.1898     82.773     37.524  23.653968     6.9300     1.2235     0.2982     0.3384 3.7175e+00     9.7370      3.410      4.946     6.5137 0.0000e+00
      3.488      0.044    10.1869     82.721     37.528  23.656873     6.9300     1.2464     0.2982     0.3384 3.6877e+00     9.6017      3.421      4.962     6.5145 0.0000e+00
      3.500      0.046    10.1822     82.684     37.540  23.664499     6.9300     1.2197     0.2982     0.3384 3.6471e+00     9.7069      3.432      4.978     6.5155 0.0000e+00
      3.512      0.048    10.1759     82.664     37.551  23.670964     7.0200     1.2273     0.2982     0.3384 3.5920e+00     9.7069      3.444      4.995     6.5164 0.0000e+00
      3.524      0.049    10.1687     82.657     37.556  23.674033     7.0200     1.2845     0.2982     0.3384 3.4558e+00     9.7370      3.456      5.013     6.5170 0.0000e+00
      3.537      0.049    10.1623     82.664     37.558  23.674522     7.0200     1.2693     0.2982     0.3384 3.3837e+00     9.5416      3.469      5.032     6.5173 0.0000e+00
      3.550      0.050    10.1577     82.682     37.555  23.672564     7.0200     1.2426     0.2982     0.3384 3.3668e+00     9.6017      3.482      5.050     6.5172 0.0000e+00
      3.563      0.050    10.1553     82.706     37.547  23.667636     7.0200     1.2998     0.2982     0.1692 3.2511e+00     9.6318      3.494      5.069     6.5169 0.0000e+00
      3.576      0.051    10.1546     82.731     37.545  23.666342     7.0200     1.3189     0.2982     0.1692 3.2652e+00     9.7370      3.507      5.087     6.5164 0.0000e+00
      3.589      0.051    10.1555     82.752     37.554  23.672294     7.0200     1.3189     0.2982     0.1692 3.2887e+00     9.5717      3.519      5.105     6.5161 0.0000e+00
      3.602      0.052    10.1578     82.766     37.559  23.675205     7.0200     1.3684     0.2982     0.1692 3.1495e+00     9.5416      3.532      5.123     6.5159 0.0000e+00
      3.615      0.052    10.1608     82.773     37.561  23.675850     7.0200     1.3456     0.2982     0.1692 3.0718e+00     9.6769      3.545      5.142     6.5158 0.0000e+00
      3.629      0.053    10.1639     82.771     37.571  23.682318     6.9300     1.4905     0.2982     0.3384 3.0248e+00     9.3763      3.559      5.162     6.5158 0.0000e+00
      3.643      0.053    10.1665     82.759     37.575  23.684458     6.9300     1.4524     0.2982     0.3384 2.9992e+00     9.3763      3.572      5.181     6.5158 0.0000e+00
      3.656      0.053    10.1682     82.744     37.567  23.678883     6.9300     1.4371     0.2982     0.3384 2.9373e+00     9.4214      3.586      5.201     6.5156 0.0000e+00
      3.670      0.053    10.1691     82.728     37.569  23.679940     6.9300     1.4714     0.2982     0.3384 2.9138e+00     9.4364      3.599      5.220     6.5152 0.0000e+00
      3.684      0.053    10.1690     82.713     37.582  23.687911     6.9300     1.4219     0.2982     0.2961 2.8842e+00     9.3913      3.612      5.239     6.5148 0.0000e+00
      3.697      0.053    10.1676     82.703     37.590  23.693045     6.9300     1.4180     0.2982     0.2961 2.8155e+00     9.4214      3.626      5.259     6.5143 0.0000e+00
      3.711      0.052    10.1659     82.702     37.589  23.692754     6.9300     1.4333     0.2982     0.2961 2.7966e+00     9.4514      3.639      5.278     6.5139 0.0000e+00
      3.724      0.051    10.1641     82.716     37.580  23.686958     6.9300     1.4066     0.2982     0.2961 2.7549e+00     9.4364      3.652      5.297     6.5136 0.0000e+00
      3.737      0.050    10.1623     82.752     37.565  23.678072     6.9300     1.4524     0.3408     0.2961 2.7210e+00     9.2861      3.665      5.315     6.5135 0.0000e+00
      3.750      0.049    10.1610     82.801     37.553  23.671643     6.9300     1.4524     0.3408     0.2961 2.7051e+00     9.4364      3.677      5.333     6.5135 0.0000e+00
      3.762      0.049    10.1608     82.844     37.550  23.669915     6.9300     1.4791     0.3408     0.2961 2.7145e+00     9.4815      3.689      5.350     6.5138 0.0000e+00
      3.773      0.050    10.1624     82.874     37.553  23.672429     6.9300     1.4676     0.3408     0.2961 2.7412e+00     9.3763      3.700      5.367     6.5143 0.0000e+00
      3.786      0.053    10.1666     82.894     37.558  23.675896     6.9300     1.3799     0.3408     0.2961 2.6765e+00     9.4063      3.712      5.384     6.5151 0.0000e+00
      3.799      0.056    10.1724     82.900     37.561  23.677281     6.9300     1.4066     0.3408     0.2961 2.6281e+00     9.4664      3.725      5.403     6.5159 0.0000e+00
      3.813      0.060    10.1774     82.888     37.562  23.676953     6.9300     1.4066     0.3408     0.2961 2.6258e+00     9.3763      3.740      5.424     6.5168 0.0000e+00
      3.829      0.065    10.1810     82.866     37.559  23.674826     6.9300     1.3875     0.3408     0.2961 2.6098e+00     9.3612      3.755      5.446     6.5174 0.0000e+00
      3.847      0.070    10.1835     82.840     37.559  23.674290     6.9300     1.3875     0.3408     0.2961 2.5196e+00     9.6618      3.772      5.471     6.5174 0.0000e+00
      3.865      0.075    10.1843     82.820     37.562  23.675203     6.9300     1.3951     0.3408     0.2538 2.4999e+00     9.7220      3.791      5.498     6.5170 0.0000e+00
      3.886      0.078    10.1831     82.809     37.560  23.673849     6.9300     1.4142     0.3408     0.2538 2.3750e+00     9.6318      3.811      5.527     6.5161 0.0000e+00
      3.907      0.080    10.1806     82.805     37.560  23.673826     6.9300     1.3799     0.3408     0.2538 2.2858e+00     9.6167      3.831      5.557     6.5152 0.0000e+00
      3.928      0.080    10.1776     82.807     37.569  23.679088     6.9300     1.5363     0.3408     0.2538 2.2256e+00     9.6017      3.852      5.587     6.5143 0.0000e+00
      3.949      0.079    10.1753     82.822     37.581  23.687077     7.0200     1.5401     0.3408     0.2961 2.1514e+00     9.5867      3.873      5.617     6.5137 0.0000e+00
      3.970      0.076    10.1741     82.847     37.583  23.688048     7.0200     1.5172     0.3408     0.2961 2.1207e+00     9.6017      3.893      5.646     6.5132 0.0000e+00
      3.989      0.073    10.1737     82.878     37.568  23.678300     7.0200     1.5134     0.3408     0.2961 2.0657e+00     9.6468      3.912      5.673     6.5129 0.0000e+00
      4.007      0.069    10.1740     82.911     37.551  23.667112     7.0200     1.4829     0.3408     0.2961 2.0711e+00     9.3763      3.929      5.699     6.5127 0.0000e+00
      4.024      0.064    10.1759     82.944     37.539  23.659418     6.9300     1.4714     0.3408     0.2961 1.9671e+00     9.3763      3.946      5.723     6.5126 0.0000e+00
      4.040      0.059    10.1790     82.973     37.529  23.653164     6.9300     1.4600     0.3408     0.2961 1.9408e+00     9.4214      3.962      5.746     6.5125 0.0000e+00
      4.055      0.055    10.1828     82.993     37.524  23.650644     6.9300     1.4524     0.3408     0.2961 1.9232e+00     9.3763      3.976      5.767     6.5123 0.0000e+00
      4.068      0.050    10.1870     82.999     37.531  23.655143     6.9300     1.5287     0.3408     0.2961 1.9020e+00     9.4063      3.989      5.786     6.5121 0.0000e+00
      4.080      0.047    10.1910     82.988     37.545  23.663902     7.0200     1.5325     0.3408     0.2538 1.9032e+00     9.3462      4.001      5.803     6.5119 0.0000e+00
      4.090      0.044    10.1945     82.967     37.556  23.671340     7.0200     1.5325     0.3408     0.2538 1.8974e+00     9.3161      4.011      5.818     6.5118 0.0000e+00
      4.101      0.042    10.1969     82.947     37.556  23.671523     7.0200     1.5134     0.3408     0.2538 1.8765e+00     9.3913      4.021      5.832     6.5120 0.0000e+00
      4.110      0.043    10.1976     82.936     37.538  23.660539     7.0200     1.4104     0.3408     0.2538 1.9036e+00     9.4063      4.031      5.846     6.5123 0.0000e+00
      4.120      0.045    10.1962     82.937     37.516  23.647338     7.0200     1.3799     0.3408     0.2538 1.8970e+00     9.3462      4.041      5.860     6.5127 0.0000e+00
      4.131      0.048    10.1935     82.947     37.510  23.644234     6.9300     1.3875     0.3408     0.1692 1.8790e+00     9.3763      4.051      5.876     6.5131 0.0000e+00
      4.143      0.053    10.1909     82.959     37.519  23.650398     6.9300     1.3875     0.3408     0.1692 1.8538e+00     9.4965      4.063      5.893     6.5137 0.0000e+00
      4.157      0.058    10.1894     82.968     37.540  23.663517     6.9300     1.3303     0.3408     0.1692 1.8108e+00     9.6769      4.077      5.913     6.5143 0.0000e+00
      4.173      0.062    10.1893     82.968     37.560  23.675212     6.9300     1.3189     0.3408     0.1692 1.7524e+00     9.6769      4.092      5.935     6.5150 0.0000e+00
      4.190      0.066    10.1904     82.956     37.563  23.676724     6.9300     1.3112     0.2982     0.3384 1.6903e+00     9.5717      4.109      5.960     6.5156 0.0000e+00
      4.209      0.067    10.1919     82.926     37.557  23.672416     6.9300     1.3303     0.2982     0.3384 1.6443e+00     9.6318      4.127      5.986     6.5160 0.0000e+00
      4.227      0.068    10.1930     82.880     37.546  23.665099     6.9300     1.4600     0.2982     0.3384 1.5947e+00     9.4664      4.145      6.012     6.5158 0.0000e+00
      4.245      0.067    10.1931     82.827     37.534  23.656779     6.9300     1.4524     0.2982     0.3384 1.5792e+00     9.3612      4.163      6.037     6.5152 0.0000e+00
      4.262      0.064    10.1918     82.780     37.522  23.649196     7.0200     1.4524     0.3408     0.2538 1.5476e+00     9.3312      4.179      6.062     6.5144 0.0000e+00
      4.278      0.061    10.1884     82.748     37.508  23.640330     7.0200     1.4638     0.3408     0.2538 1.5308e+00     9.3763      4.195      6.084     6.5137 0.0000e+00
      4.293      0.057    10.1829     82.734     37.495  23.631774     7.0200     1.2807     0.3408     0.2538 1.4692e+00     9.5115      4.210      6.106     6.5130 0.0000e+00
      4.307      0.054    10.1766     82.730     37.491  23.629164     7.0200     1.2654     0.3408     0.2538 1.4715e+00     9.5266      4.224      6.126     6.5125 0.0000e+00
      4.321      0.050    10.1708     82.728     37.501  23.635764     7.0200     1.3036     0.3408     0.2538 1.4632e+00     9.6318      4.237      6.145     6.5121 0.0000e+00
      4.333      0.047    10.1670     82.722     37.523  23.649374     6.9300     1.2731     0.2982     0.2115 1.4468e+00     9.5867      4.249      6.162     6.5118 0.0000e+00
      4.344      0.045    10.1653     82.714     37.542  23.661747     6.9300     1.3150     0.2982     0.2115 1.4274e+00     9.3161      4.260      6.178     6.5116 0.0000e+00
      4.355      0.044    10.1648     82.710     37.551  23.668265     6.9300     1.3494     0.2982     0.2115 1.4321e+00     9.3612      4.270      6.193     6.5116 0.0000e+00
      4.365      0.045    10.1645     82.718     37.560  23.674625     6.9300     1.3303     0.2982     0.2115 1.4141e+00     9.2560      4.280      6.208     6.5117 0.0000e+00
      4.376      0.046    10.1638     82.736     37.572  23.682522     6.9300     1.3417     0.2982     0.2538 1.4150e+00     9.3763      4.291      6.224     6.5121 0.0000e+00
      4.388      0.050    10.1626     82.763     37.570  23.682186     6.9300     1.3417     0.2982     0.2538 1.4034e+00     9.6318      4.302      6.240     6.5125 0.0000e+00
      4.400      0.054    10.1620     82.796     37.556  23.673528     6.9300     1.3494     0.2982     0.2538 1.3762e+00     9.7670      4.315      6.258     6.5132 0.0000e+00
      4.414      0.059    10.1628     82.829     37.551  23.670074     6.9300     1.3303     0.2982     0.2538 1.3649e+00     9.6167      4.328      6.278     6.5140 0.0000e+00
      4.430      0.064    10.1647     82.854     37.560  23.674862     7.0200     1.3227     0.2982     0.2115 1.3463e+00     9.6468      4.344      6.301     6.5149 0.0000e+00
      4.447      0.069    10.1678     82.869     37.565  23.677292     7.0200     1.4943     0.2982     0.2115 1.2799e+00     9.6167      4.361      6.326     6.5155 0.0000e+00
      4.466      0.073    10.1719     82.871     37.560  23.674054     7.0200     1.4447     0.2982     0.2115 1.2418e+00     9.6919      4.380      6.353     6.5158 0.0000e+00
      4.486      0.076    10.1760     82.868     37.558  23.672201     7.0200     1.4676     0.2982     0.2115 1.1861e+00     9.6017      4.399      6.381     6.5155 0.0000e+00
      4.507      0.078    10.1793     82.869     37.557  23.671239     7.0200     1.4676     0.3408     0.3384 1.1733e+00     9.6318      4.420      6.410     6.5149 0.0000e+00
      4.527      0.078    10.1812     82.874     37.551  23.666953     7.0200     1.4142     0.3408     0.3384 1.1484e+00     9.6318      4.439      6.439     6.5141 0.0000e+00
      4.547      0.078    10.1817     82.883     37.544  23.662159     7.0200     1.3875     0.3408     0.3384 1.1511e+00     9.7520      4.459      6.467     6.5133 0.0000e+00
      4.567      0.077    10.1815     82.892     37.546  23.663497     7.0200     1.3875     0.3408     0.3384 1.1048e+00     9.6167      4.478      6.495     6.5127 0.0000e+00
      4.586      0.076    10.1817     82.899     37.552  23.667363     7.0200     1.3837     0.3408     0.3384 1.0735e+00     9.6618      4.498      6.523     6.5122 0.0000e+00
      4.606      0.076    10.1825     82.899     37.552  23.666872     7.0200     1.2845     0.3408     0.2538 1.0409e+00     9.6468      4.517      6.551     6.5118 0.0000e+00
      4.625      0.075    10.1836     82.893     37.544  23.661891     7.0200     1.2578     0.3408     0.2538 1.0210e+00     9.6017      4.536      6.578     6.5114 0.0000e+00
      4.644      0.076    10.1848     82.880     37.533  23.655053     7.0200     1.2654     0.3408     0.2538 1.0281e+00     9.6167      4.554      6.605     6.5112 0.0000e+00
      4.662      0.076    10.1856     82.865     37.529  23.652451     7.0200     1.2769     0.3408     0.2538 9.8803e-01     9.6318      4.572      6.632     6.5111 0.0000e+00
      4.681      0.078    10.1857     82.857     37.531  23.653391     6.9300     1.4066     0.3408     0.2961 9.6365e-01     9.6017      4.591      6.659     6.5110 0.0000e+00
      4.701      0.079    10.1850     82.859     37.532  23.654165     6.9300     1.4142     0.3408     0.2961 9.6995e-01     9.6017      4.610      6.687     6.5110 0.0000e+00
      4.722      0.081    10.1833     82.866     37.532  23.654980     6.9300     1.3990     0.3408     0.2961 9.1806e-01     9.6919      4.631      6.716     6.5110 0.0000e+00
      4.743      0.081    10.1815     82.872     37.533  23.656052     6.9300     1.3951     0.3408     0.2961 9.1309e-01     9.6318      4.652      6.746     6.5109 0.0000e+00
      4.764      0.081    10.1806     82.877     37.535  23.657668     7.0200     1.4447     0.3408     0.2538 8.8901e-01     9.6017      4.673      6.777     6.5108 0.0000e+00
      4.786      0.079    10.1808     82.882     37.538  23.660258     7.0200     1.4867     0.3408     0.2538 8.4991e-01     9.6017      4.694      6.808     6.5109 0.0000e+00
      4.807      0.076    10.1816     82.886     37.544  23.664513     7.0200     1.4524     0.3408     0.2538 8.5028e-01     9.5566      4.714      6.837     6.5112 0.0000e+00
      4.826      0.073    10.1821     82.887     37.554  23.671569     7.0200     1.4600     0.3408     0.2538 7.6108e-01     9.6017      4.733      6.864     6.5119 0.0000e+00
      4.844      0.069    10.1825     82.884     37.566  23.679347     7.0200     1.3150     0.2982     0.2115 7.6923e-01     9.6167      4.750      6.890     6.5127 0.0000e+00
      4.860      0.066    10.1830     82.880     37.570  23.682005     7.0200     1.3646     0.2982     0.2115 7.8955e-01     9.5867      4.767      6.913     6.5135 0.0000e+00
      4.876      0.063    10.1833     82.876     37.566  23.680251     7.0200     1.3379     0.2982     0.2115 7.4618e-01     9.6618      4.782      6.936     6.5141 0.0000e+00
      4.891      0.061    10.1832     82.875     37.561  23.677575     7.0200     1.3570     0.2982     0.2115 7.3571e-01     9.6167      4.797      6.958     6.5148 0.0000e+00
      4.906      0.060    10.1827     82.874     37.548  23.669306     7.0200     1.5172     0.2982     0.2115 7.2919e-01     9.5416      4.812      6.979     6.5155 0.0000e+00
      4.921      0.060    10.1820     82.873     37.528  23.657197     7.0200     1.4943     0.3408     0.2961 7.4845e-01     9.5416      4.826      7.000     6.5162 0.0000e+00
      4.935      0.062    10.1815     82.873     37.523  23.653855     7.0200     1.5287     0.3408     0.2961 7.3252e-01     9.6318      4.840      7.020     6.5168 0.0000e+00
      4.951      0.066    10.1812     82.881     37.530  23.658389     7.0200     1.5363     0.3408     0.2961 6.8139e-01     9.6318      4.855      7.042     6.5171 0.0000e+00
      4.967      0.070    10.1811     82.898     37.532  23.660131     7.0200     1.5096     0.3408     0.2961 6.8555e-01     9.6167      4.871      7.065     6.5173 0.0000e+00
      4.986      0.074    10.1809     82.927     37.537  23.663504     7.0200     1.5516     0.3408     0.3384 6.5939e-01     9.6318      4.889      7.091     6.5175 0.0000e+00
      5.006      0.078    10.1809     82.964     37.558  23.677326     7.0200     1.5058     0.3408     0.3384 6.3728e-01     9.7370      4.909      7.120     6.5178 0.0000e+00
      5.028      0.081    10.1817     83.001     37.584  23.693405     7.0200     1.5210     0.3408     0.3384 6.0726e-01     9.6618      4.931      7.151     6.5181 0.0000e+00
      5.050      0.082    10.1838     83.028     37.594  23.700194     7.0200     1.5210     0.3408     0.3384 5.8537e-01     9.6017      4.952      7.183     6.5185 0.0000e+00
      5.071      0.083    10.1872     83.042     37.606  23.707421     7.0200     1.5020     0.3408     0.2538 5.8308e-01     9.6318      4.973      7.213     6.5188 0.0000e+00
      5.092      0.083    10.1917     83.039     37.628  23.720973     7.0200     1.5210     0.3408     0.2538 5.8245e-01     9.6318      4.994      7.243     6.5190 0.0000e+00
      5.112      0.082    10.1962     83.022     37.640  23.728627     7.0200     1.5287     0.3408     0.2538 5.7528e-01     9.6167      5.014      7.272     6.5191 0.0000e+00
      5.133      0.082    10.1995     82.997     37.641  23.728466     7.0200     1.4486     0.3408     0.2538 5.3211e-01     9.4664      5.034      7.301     6.5191 0.0000e+00
      5.154      0.083    10.2012     82.975     37.635  23.724405     7.0200     1.4638     0.3408     0.1692 5.2842e-01     9.3612      5.055      7.331     6.5191 0.0000e+00
      5.175      0.083    10.2010     82.961     37.627  23.719321     7.0200     1.4447     0.3408     0.1692 4.9303e-01     9.4364      5.076      7.361     6.5189 0.0000e+00
      5.197      0.084    10.1989     82.962     37.622  23.715817     7.0200     1.4600     0.3408     0.1692 5.0694e-01     9.3913      5.097      7.392     6.5185 0.0000e+00
      5.218      0.084    10.1960     82.976     37.612  23.709000     7.0200     1.4371     0.3408     0.1692 5.0124e-01     9.3612      5.117      7.422     6.5181 0.0000e+00
      5.239      0.084    10.1933     82.994     37.593  23.697051     7.0200     1.3303     0.3408     0.1692 4.8760e-01     9.6769      5.138      7.452     6.5177 0.0000e+00
      5.261      0.084    10.1918     83.011     37.580  23.688661     7.0200     1.3379     0.3408     0.2961 4.6991e-01     9.6017      5.160      7.483     6.5171 0.0000e+00
      5.283      0.084    10.1920     83.027     37.576  23.685550     7.0200     1.3379     0.3408     0.2961 4.5941e-01     9.6167      5.181      7.514     6.5165 0.0000e+00
      5.304      0.083    10.1938     83.038     37.572  23.682932     7.0200     1.3456     0.3408     0.2961 4.5633e-01     9.6318      5.202      7.544     6.5161 0.0000e+00
      5.325      0.083    10.1962     83.040     37.567  23.680107     7.0200     1.4295     0.3408     0.2961 4.1689e-01     9.6167      5.223      7.575     6.5158 0.0000e+00
      5.346      0.083    10.1984     83.037     37.561  23.676323     6.9300     1.3990     0.3408     0.2115 4.1616e-01     9.6017      5.243      7.604     6.5156 0.0000e+00
      5.367      0.083    10.2003     83.034     37.552  23.670571     6.9300     1.3723     0.3408     0.2115 4.2521e-01     9.5115      5.263      7.634     6.5154 0.0000e+00
      5.388      0.083    10.2017     83.038     37.538  23.661315     6.9300     1.4066     0.3408     0.2115 4.1220e-01     9.5867      5.284      7.664     6.5154 0.0000e+00
      5.409      0.084    10.2020     83.047     37.526  23.654006     6.9300     1.3951     0.3408     0.2115 3.9160e-01     9.6318      5.305      7.694     6.5153 0.0000e+00
      5.431      0.086    10.2015     83.059     37.527  23.654612     7.0200     1.3951     0.3408     0.2538 3.7445e-01     9.6318      5.326      7.724     6.5153 0.0000e+00
      5.453      0.088    10.2012     83.066     37.535  23.659337     7.0200     1.4219     0.3408     0.2538 3.6387e-01     9.5416      5.347      7.756     6.5152 0.0000e+00
      5.476      0.091    10.2017     83.069     37.545  23.665480     7.0200     1.3875     0.3408     0.2538 3.7332e-01     9.6167      5.369      7.788     6.5152 0.0000e+00
      5.499      0.094    10.2029     83.074     37.553  23.670722     7.0200     1.4066     0.3408     0.2538 3.3729e-01     9.5566      5.392      7.821     6.5151 0.0000e+00
      5.524      0.096    10.2043     83.080     37.562  23.676461     7.0200     1.3951     0.2982     0.2538 3.3884e-01     9.6468      5.417      7.856     6.5151 0.0000e+00
      5.549      0.098    10.2052     83.082     37.569  23.680268     7.0200     1.3951     0.2982     0.2538 3.1587e-01     9.5416      5.442      7.892     6.5150 0.0000e+00
      5.575      0.100    10.2056     83.075     37.561  23.675239     7.0200     1.4219     0.2982     0.2538 3.2605e-01     9.6318      5.467      7.929     6.5149 0.0000e+00
      5.601      0.100    10.2063     83.061     37.549  23.667952     7.0200     1.3913     0.2982     0.2538 3.1320e-01     9.6769      5.493      7.966     6.5148 0.0000e+00
      5.627      0.100    10.2071     83.044     37.537  23.660423     7.0200     1.3951     0.2982     0.2538 3.0694e-01     9.6919      5.518      8.003     6.5147 0.0000e+00
      5.652      0.099    10.2072     83.031     37.528  23.654602     7.0200     1.3951     0.3408     0.2961 2.9299e-01     9.6769      5.543      8.039     6.5146 0.0000e+00
      5.677      0.097    10.2064     83.027     37.532  23.656856     7.0200     1.3990     0.3408     0.2961 2.7118e-01     9.6769      5.567      8.074     6.5146 0.0000e+00
      5.702      0.096    10.2047     83.035     37.543  23.663826     7.0200     1.3990     0.3408     0.2961 2.6220e-01     9.6167      5.591      8.109     6.5147 0.0000e+00
      5.726      0.094    10.2026     83.055     37.558  23.673412     7.0200     1.3723     0.3408     0.2961 2.3855e-01     9.6017      5.615      8.144     6.5147 0.0000e+00
      5.750      0.092    10.2010     83.084     37.575  23.684212     7.0200     1.3875     0.3408     0.2538 2.4817e-01     9.6318      5.639      8.179     6.5147 0.0000e+00
      5.774      0.089    10.2006     83.116     37.579  23.687229     7.0200     1.4028     0.3408     0.2538 2.6021e-01     9.5416      5.662      8.212     6.5147 0.0000e+00
      5.796      0.086    10.2015     83.142     37.567  23.679308     7.0200     1.5096     0.3408     0.2538 2.5001e-01     9.6167      5.684      8.244     6.5148 0.0000e+00
      5.818      0.083    10.2039     83.157     37.552  23.670214     7.0200     1.5363     0.3408     0.2538 2.4074e-01     9.5717      5.705      8.275     6.5148 0.0000e+00
      5.838      0.079    10.2075     83.154     37.538  23.661480     7.0200     1.5248     0.3408     0.1692 2.5512e-01     9.5566      5.725      8.304     6.5149 0.0000e+00
      5.858      0.076    10.2114     83.135     37.521  23.650779     7.0200     1.5248     0.3408     0.1692 2.2345e-01     9.6318      5.745      8.332     6.5149 0.0000e+00
      5.877      0.073    10.2146     83.108     37.515  23.647132     7.0200     1.4066     0.3408     0.1692 2.1988e-01     9.6017      5.763      8.358     6.5150 0.0000e+00
      5.895      0.071    10.2164     83.079     37.525  23.653526     7.0200     1.3990     0.3408     0.1692 2.4152e-01     9.5566      5.781      8.384     6.5151 0.0000e+00
      5.912      0.068    10.2160     83.054     37.535  23.659789     7.0200     1.4180     0.3408     0.1692 1.7930e-01     9.5717      5.798      8.409     6.5152 0.0000e+00
      5.930      0.066    10.2137     83.035     37.535  23.659675     7.0200     1.3951     0.2982     0.3384 1.8775e-01     9.4815      5.815      8.434     6.5152 0.0000e+00
      5.946      0.063    10.2104     83.020     37.524  23.653151     7.0200     1.3265     0.2982     0.3384 1.8399e-01     9.8723      5.831      8.458     6.5152 0.0000e+00
      5.963      0.060    10.2068     83.009     37.513  23.646397     7.0200     1.3303     0.2982     0.3384 2.0467e-01     9.8572      5.847      8.481     6.5152 0.0000e+00
      5.978      0.057    10.2037     83.001     37.518  23.649488     7.0200     1.3456     0.2982     0.3384 1.7059e-01     9.8272      5.862      8.503     6.5153 0.0000e+00
      5.992      0.053    10.2013     82.996     37.533  23.659289     7.0200     1.3341     0.3408     0.2961 1.9617e-01     9.9174      5.876      8.523     6.5154 0.0000e+00
      6.005      0.050    10.1994     82.999     37.545  23.666538     7.0200     1.3227     0.3408     0.2961 1.7298e-01     9.7670      5.889      8.541     6.5155 0.0000e+00
      6.016      0.048    10.1980     83.005     37.549  23.669207     7.0200     1.3265     0.3408     0.2961 1.6380e-01     9.8272      5.900      8.558     6.5156 0.0000e+00
      6.027      0.047    10.1970     83.008     37.553  23.671969     7.0200     1.3494     0.3408     0.2961 1.6059e-01     9.9775      5.911      8.573     6.5157 0.0000e+00
      6.038      0.048    10.1964     83.011     37.565  23.679518     7.0200     1.3074     0.3408     0.2115 1.7276e-01     9.9023      5.922      8.589     6.5159 0.0000e+00
      6.050      0.050    10.1967     83.014     37.581  23.689909     7.0200     1.2082     0.3408     0.2115 1.9321e-01     9.7370      5.933      8.605     6.5160 0.0000e+00
      6.062      0.052    10.1974     83.015     37.593  23.697995     7.0200     1.2082     0.3408     0.2115 1.4008e-01     9.8873      5.945      8.623     6.5162 0.0000e+00
      6.077      0.053    10.1978     83.011     37.599  23.701973     7.0200     1.2387     0.3408     0.2115 1.5913e-01     9.9324      5.959      8.644     6.5164 0.0000e+00
      6.092      0.053    10.1981     83.007     37.600  23.702904     7.0200     1.2235     0.3834     0.1692 1.4984e-01     9.7370      5.974      8.666     6.5167 0.0000e+00
      6.108      0.051    10.1984     83.008     37.597  23.701036     7.0200     1.3951     0.3834     0.1692 1.6157e-01    10.0075      5.989      8.688     6.5171 0.0000e+00
      6.121      0.048    10.1984     83.020     37.595  23.699830     7.0200     1.4028     0.3834     0.1692 1.6150e-01    10.1879      6.003      8.707     6.5174 0.0000e+00
      6.133      0.044    10.1979     83.045     37.606  23.706882     7.0200     1.4104     0.3834     0.1692 1.5588e-01    10.1278      6.014      8.723     6.5177 0.0000e+00
      6.143      0.040    10.1973     83.081     37.620  23.716154     7.0200     1.3723     0.3834     0.1692 1.4870e-01    10.0827      6.024      8.738     6.5180 0.0000e+00
      6.152      0.036    10.1973     83.126     37.618  23.714285     6.9300     1.4638     0.3408     0.3384 1.4084e-01    12.0667      6.033      8.751     6.5184 0.0000e+00
      6.161      0.032    10.1987     83.176     37.602  23.704735     6.9300     1.4409     0.3408     0.3384 1.3953e-01    12.0366      6.041      8.763     6.5187 0.0000e+00
      6.168      0.029    10.2017     83.226     37.589  23.696833     6.9300     1.4409     0.3408     0.3384 1.3529e-01    12.0817      6.049      8.773     6.5189 0.0000e+00
      6.175      0.026    10.2061     83.267     37.582  23.692430     6.9300     1.4447     0.3408     0.3384 1.3582e-01    12.0967      6.056      8.783     6.5190 0.0000e+00
      6.181      0.023    10.2116     83.292     37.578  23.690354     7.0200     1.8377     0.3834     0.2961 1.3766e-01    17.9284      6.062      8.792     6.5190 0.0000e+00
      6.187      0.021    10.2177     83.297     37.576  23.690051     7.0200     1.8186     0.3834     0.2961 1.1956e-01    17.9284      6.067      8.800     6.5191 0.0000e+00
      6.192      0.019    10.2237     83.284     37.565  23.683521     7.0200     1.8567     0.3834     0.2961 1.2889e-01    17.9735      6.072      8.807     6.5194 0.0000e+00
      6.196      0.017    10.2287     83.258     37.541  23.669023     7.0200     1.8377     0.3834     0.2961 1.1709e-01    17.8533      6.076      8.813     6.5199 0.0000e+00
      6.200      0.015    10.2316     83.221     37.530  23.662487     6.9300     2.6197     0.4260     0.4653 1.1617e-01    54.7222      6.080      8.819     6.5205 0.0000e+00
      6.204      0.013    10.2321     83.174     37.535  23.666127     6.9300     2.6082     0.4260     0.4653 1.2314e-01    54.5869      6.083      8.823     6.5211 0.0000e+00
      6.207      0.012    10.2303     83.119     37.538  23.669039     6.9300     2.6235     0.4260     0.4653 1.1620e-01    54.5869      6.086      8.828     6.5218 0.0000e+00
      6.209      0.010    10.2269     83.067     37.543  23.671997     6.9300     2.6655     0.4260     0.4653 1.2263e-01    54.6170      6.089      8.832     6.5225 0.0000e+00
      6.212      0.009    10.2222     83.018     37.549  23.675792     6.8400     2.7494     0.6816     3.6801 1.2344e-01    74.1111      6.091      8.835     6.5232 0.0000e+00
      6.214      0.008    10.2162     82.974     37.545  23.673518     6.8400     2.7570     0.6816     3.6801 1.2023e-01    74.0960      6.093      8.838     6.5240 0.0000e+00
      6.216      0.008    10.2093     82.937     37.538  23.668526     6.8400     2.7379     0.6816     3.6801 1.1612e-01    74.0960      6.095      8.841     6.5246 0.0000e+00
      6.217      0.007    10.2027     82.907     37.542  23.671363     6.8400     2.7570     0.6816     3.6801 1.1623e-01    74.1562      6.097      8.843     6.5250 0.0000e+00
      6.219      0.007    10.1967     82.887     37.554  23.678826     6.8400     3.0279     0.6816     3.6801 1.1617e-01    51.9116      6.099      8.846     6.5251 0.0000e+00
      6.221      0.008    10.1914     82.878     37.564  23.684987     6.6600     3.0012     0.7668     0.9729 1.1612e-01    51.9116      6.101      8.848     6.5250 0.0000e+00
      6.223      0.008    10.1868     82.877     37.575  23.691489     6.6600     3.0012     0.7668     0.9729 1.2346e-01    51.9266      6.103      8.851     6.5249 0.0000e+00
      6.225      0.009    10.1831     82.883     37.576  23.692149     6.6600     3.0202     0.7668     0.9729 1.4890e-01    51.9116      6.105      8.854     6.5248 0.0000e+00
      6.227      0.009    10.1807     82.902     37.568  23.687142     6.6600     2.7379     0.7668     0.9729 1.1612e-01    76.3806      6.107      8.857     6.5248 0.0000e+00
      6.230      0.009    10.1797     82.932     37.568  23.687010     6.9300     2.7761     0.5964     0.4230 1.2036e-01    76.2754      6.109      8.861     6.5247 0.0000e+00
      6.232      0.010    10.1796     82.966     37.569  23.687758     6.9300     2.7723     0.5964     0.4230 1.1610e-01    76.2754      6.112      8.865     6.5245 0.0000e+00
      6.235      0.010    10.1803     83.002     37.559  23.681669     6.9300     2.7570     0.5964     0.4230 1.1699e-01    76.3656      6.114      8.868     6.5244 0.0000e+00
      6.238      0.010    10.1827     83.037     37.542  23.671077     6.9300     3.6115     0.5964     0.4230 1.1793e-01   148.7056      6.117      8.872     6.5243 0.0000e+00
      6.240      0.011    10.1864     83.065     37.525  23.661076     6.7500     3.6039     0.4686     0.4653 1.1607e-01   148.7958      6.119      8.876     6.5243 0.0000e+00
      6.243      0.011    10.1905     83.085     37.518  23.656917     6.7500     3.6039     0.4686     0.4653 1.1612e-01   148.8259      6.122      8.879     6.5245 0.0000e+00
      6.246      0.011    10.1949     83.095     37.532  23.665408     6.7500     3.6115     0.4686     0.4653 1.1625e-01   148.7658      6.125      8.883     6.5248 0.0000e+00
      6.249      0.012    10.1991     83.096     37.556  23.680896     6.7500     5.2404     0.4686     0.4653 1.1625e-01   338.5513      6.128      8.888     6.5251 0.0000e+00
      6.252      0.012    10.2024     83.093     37.567  23.687716     7.0200     5.2481     0.5112     0.3384 1.1628e-01   338.4611      6.131      8.892     6.5253 0.0000e+00
      6.255      0.013    10.2048     83.089     37.566  23.687688     7.0200     5.2557     0.5112     0.3384 1.1633e-01   338.5212      6.134      8.897     6.5256 0.0000e+00
      6.258      0.013    10.2061     83.081     37.568  23.688721     7.0200     5.2442     0.5112     0.3384 1.1602e-01   338.4010      6.137      8.901     6.5258 0.0000e+00
      6.261      0.014    10.2061     83.072     37.565  23.687132     7.0200     3.0813     0.5112     0.3384 1.1623e-01   200.9955      6.141      8.906     6.5260 0.0000e+00
      6.265      0.015    10.2056     83.066     37.558  23.682498     7.0200     3.0660     0.5112     0.3384 1.1638e-01   201.0255      6.144      8.911     6.5263 0.0000e+00
      6.269      0.015    10.2051     83.059     37.557  23.681500     7.1100     3.0813     0.5112     0.3807 1.1628e-01   200.7700      6.148      8.917     6.5265 0.0000e+00
      6.273      0.015    10.2041     83.050     37.561  23.683872     7.1100     3.0584     0.5112     0.3807 1.1640e-01   201.0706      6.152      8.923     6.5266 0.0000e+00
      6.277      0.015    10.2031     83.035     37.559  23.682329     7.1100    -0.1155     0.5112     0.3807 1.1625e-01    -0.1528      6.156      8.929     6.5265 0.0000e+00
      6.281      0.015    10.2023     83.010     37.550  23.676459     7.1100    -0.1155     0.5112     0.3807 1.1623e-01    -0.0927      6.160      8.935     6.5263 0.0000e+00
      6.285      0.014    10.2016     82.970     37.544  23.672615     6.9300    -0.1308     0.5112     0.3807 1.1628e-01    -0.0927      6.164      8.940     6.5259 0.0000e+00
      6.288      0.014    10.2005     82.921     37.553  23.677690     6.9300    -0.1155     0.5112     0.3807 1.1612e-01    -0.1078      6.167      8.945     6.5255 0.0000e+00
      6.292      0.014    10.1988     82.868     37.577  23.693037     6.9300    -0.1117     0.5112     0.3807 1.1623e-01    -0.2881      6.170      8.949     6.5252 0.0000e+00
      6.295      0.014    10.1958     82.816     37.612  23.714831     6.9300    -0.1002     0.5112     0.3807 1.1617e-01    -0.2581      6.173      8.954     6.5249 0.0000e+00
      6.298      0.015    10.1910     82.775     37.659  23.744925     6.9300    -0.1269     0.5538     0.4230 1.1633e-01    -0.3633      6.177      8.959     6.5247 0.0000e+00
      6.302      0.016    10.1850     82.751     37.704  23.773529     6.9300    -0.1079     0.5538     0.4230 1.1605e-01    -0.3182      6.180      8.964     6.5245 0.0000e+00
      6.306      0.018    10.1786     82.737     37.718  23.782536     6.9300     0.8153     0.5538     0.4230 1.1623e-01   105.1182      6.184      8.970     6.5243 0.0000e+00
      6.311      0.020    10.1722     82.723     37.702  23.772371     6.9300     0.7733     0.5538     0.4230 1.1633e-01   105.1784      6.189      8.977     6.5243 0.0000e+00
      6.317      0.022    10.1671     82.695     37.673  23.754177     6.9300     0.7772     0.5112     0.5076 1.1623e-01   105.1784      6.195      8.985     6.5244 0.0000e+00
      6.323      0.024    10.1640     82.646     37.649  23.738941     6.9300     0.8077     0.5112     0.5076 1.1612e-01   105.1333      6.201      8.993     6.5245 0.0000e+00
      6.329      0.026    10.1623     82.579     37.636  23.730515     6.9300     1.2731     0.5112     0.5076 1.1612e-01   192.8341      6.207      9.002     6.5247 0.0000e+00
      6.336      0.027    10.1606     82.499     37.636  23.730613     6.9300     1.2921     0.5112     0.5076 1.1628e-01   192.8341      6.214      9.012     6.5249 0.0000e+00
      6.343      0.028    10.1571     82.413     37.656  23.743219     6.9300     1.2654     0.5112     0.5076 1.1617e-01   192.9243      6.221      9.022     6.5250 0.0000e+00
      6.351      0.029    10.1510     82.338     37.701  23.771695     7.0200     1.2693     0.3834     0.8460 1.1625e-01   192.9994      6.228      9.033     6.5250 0.0000e+00
      6.358      0.029    10.1429     82.287     37.783  23.823634     7.0200     1.1930     0.3834     0.8460 1.1612e-01   177.5785      6.236      9.044     6.5250 0.0000e+00
      6.366      0.029    10.1330     82.264     37.865  23.875277     7.0200     1.2159     0.3834     0.8460 1.1605e-01   177.6687      6.243      9.055     6.5250 0.0000e+00
      6.374      0.029    10.1225     82.269     37.889  23.890908     7.0200     1.2159     0.3834     0.8460 1.1605e-01   177.5635      6.251      9.066     6.5250 0.0000e+00
      6.381      0.028    10.1132     82.292     37.885  23.888552     6.9300     1.2159     0.3834     0.2961 1.1625e-01   177.4282      6.258      9.076     6.5251 0.0000e+00
      6.388      0.028    10.1069     82.309     37.889  23.891336     6.9300     0.7772     0.3834     0.2961 1.1612e-01   138.5903      6.265      9.086     6.5253 0.0000e+00
      6.395      0.027    10.1040     82.298     37.890  23.892082     6.9300     0.8077     0.3834     0.2961 1.1612e-01   138.6655      6.271      9.096     6.5255 0.0000e+00
      6.402      0.026    10.1045     82.250     37.894  23.894950     6.9300     0.7772     0.3834     0.2961 1.1617e-01   138.5753      6.278      9.105     6.5259 0.0000e+00
      6.408      0.026    10.1072     82.172     37.921  23.912581     6.9300     0.7848     0.4686     0.2961 1.1650e-01   138.6956      6.284      9.115     6.5264 0.0000e+00
      6.415      0.025    10.1093     82.077     37.983  23.951656     6.9300     0.0714     0.4686     0.2961 1.1620e-01   102.5781      6.291      9.124     6.5268 0.0000e+00
      6.421      0.023    10.1078     81.974     38.092  24.020615     6.9300     0.0791     0.4686     0.2961 1.1615e-01   102.5180      6.297      9.134     6.5271 0.0000e+00
      6.427      0.021    10.1018     81.877     38.234  24.110135     6.9300     0.0752     0.4686     0.2961 1.1605e-01   102.6082      6.303      9.142     6.5274 0.0000e+00
      6.433      0.019    10.0922     81.807     38.375  24.198561     6.9300     0.0752     0.4686     0.2961 1.1605e-01   102.6533      6.309      9.150     6.5277 0.0000e+00
      6.437      0.016    10.0805     81.782     38.491  24.271861     6.9300    -0.1384     0.3834     0.4230 1.1620e-01    35.8443      6.313      9.156     6.5279 0.0000e+00
      6.441      0.014    10.0677     81.798     38.567  24.319889     6.9300    -0.1117     0.3834     0.4230 1.1610e-01    35.8443      6.316      9.161     6.5280 0.0000e+00
      6.444      0.011    10.0558     81.827     38.614  24.349516     6.9300    -0.1002     0.3834     0.4230 1.1633e-01    35.7842      6.319      9.165     6.5280 0.0000e+00
      6.446      0.009    10.0473     81.833     38.707  24.408231     6.9300    -0.1079     0.3834     0.4230 1.1605e-01    35.8443      6.322      9.169     6.5279 0.0000e+00
      6.448      0.007    10.0442     81.795     38.919  24.541384     7.0200    -0.1117     0.3408     0.3384 1.1612e-01    48.5298      6.324      9.172     6.5277 0.0000e+00
      6.450      0.006    10.0463     81.700     39.163  24.695403     7.0200    -0.1193     0.3408     0.3384 1.1623e-01    48.5298      6.325      9.174     6.5276 0.0000e+00
      6.451      0.005    10.0498     81.536     39.307  24.786650     7.0200    -0.1117     0.3408     0.3384 1.1620e-01    48.3193      6.326      9.175     6.5276 0.0000e+00
      6.452      0.004    10.0505     81.297     39.340  24.807786     7.0200    -0.1231     0.3408     0.3384 1.1612e-01    48.4246      6.327      9.177     6.5276 0.0000e+00
      6.453      0.003    10.0458     80.993     39.300  24.782261     6.9300    -0.0964     0.3408     0.2115 1.1633e-01    26.5858      6.328      9.178     6.5277 0.0000e+00
      6.453      0.002    10.0340     80.641     39.244  24.746820     6.9300    -0.1155     0.3408     0.2115 1.1612e-01    26.5106      6.329      9.179     6.5279 0.0000e+00
      6.454      0.002    10.0139     80.263     39.217  24.729624     6.9300    -0.1079     0.3408     0.2115 1.1623e-01    26.4505      6.329      9.180     6.5281 0.0000e+00
      6.454      0.001     9.9845     79.880     39.192  24.714210     6.9300    -0.1155     0.3408     0.2115 1.1625e-01    26.4655      6.330      9.180     6.5282 0.0000e+00
      6.455      0.001     9.9471     79.500     39.152  24.688549     7.0200    -0.1308     0.3408     0.3384 1.1607e-01    15.1027      6.330      9.181     6.5283 0.0000e+00
      6.455      0.001     9.9039     79.134     39.109  24.661635     7.0200    -0.1231     0.3408     0.3384 1.1612e-01    15.0126      6.330      9.181     6.5283 0.0000e+00
      6.455      0.000     9.8576     78.804     39.072  24.638167     7.0200    -0.1231     0.3408     0.3384 1.1617e-01    15.0276      6.330      9.181     6.5282 0.0000e+00
      6.455      0.000     9.8106     78.529     39.037  24.615848     7.0200    -0.1193     0.3408     0.3384 1.1610e-01    15.0577      6.330      9.181     6.5280 0.0000e+00
      6.455      0.000     9.7640     78.326     38.982  24.580806     7.0200    -0.1269     0.3408     0.3384 1.1617e-01    12.9384      6.330      9.181     6.5278 0.0000e+00
      6.455      0.000     9.7190     78.207     38.904  24.531615     7.0200    -0.1117     0.3834     0.9729 1.1623e-01    12.9835      6.331      9.182     6.5276 0.0000e+00
      6.455      0.000     9.6786     78.171     38.848  24.496728     7.0200    -0.1193     0.3834     0.9729 1.1615e-01    12.8332      6.331      9.182     6.5274 0.0000e+00
      6.455     -0.001     9.6449     78.207     38.845  24.494556     7.0200    -0.1041     0.3834     0.9729 1.1617e-01    12.9685      6.330      9.181     6.5272 0.0000e+00
      6.455     -0.001     9.6199     78.302     38.861  24.504723     7.0200    -0.1422     0.3834     0.9729 1.1612e-01    15.0727      6.330      9.181     6.5271 0.0000e+00
      6.455     -0.001     9.6053     78.433     38.857  24.502227     6.9300    -0.1498     0.4686     0.5076 1.1638e-01    15.0276      6.330      9.181     6.5271 0.0000e+00
      6.455     -0.002     9.6008     78.574     38.835  24.488382     6.9300    -0.1002     0.4686     0.5076 1.1617e-01    15.0426      6.330      9.181     6.5270 0.0000e+00
      6.454     -0.002     9.6053     78.717     38.789  24.459497     6.9300    -0.1079     0.4686     0.5076 1.1612e-01    15.0276      6.330      9.180     6.5270 0.0000e+00
      6.454     -0.003     9.6170     78.855     38.710  24.409849     6.9300    -0.1231     0.4686     0.5076 1.1620e-01    12.9384      6.329      9.180     6.5271 0.0000e+00
      6.453     -0.003     9.6330     78.983     38.613  24.347972     6.9300    -0.1041     0.5112     0.3807 1.1617e-01    12.9234      6.329      9.179     6.5272 0.0000e+00
      6.452     -0.004     9.6503     79.099     38.488  24.269242     6.9300    -0.1269     0.5112     0.3807 1.1615e-01    12.9083      6.328      9.177     6.5273 0.0000e+00
      6.451     -0.005     9.6679     79.200     38.345  24.178400     6.9300    -0.1498     0.5112     0.3807 1.1623e-01    12.9685      6.326      9.176     6.5272 0.0000e+00
      6.450     -0.006     9.6849     79.284     38.222  24.100707     6.9300    -0.1155     0.5112     0.3807 1.1625e-01     8.6698      6.325      9.174     6.5271 0.0000e+00
      6.448     -0.007     9.7007     79.356     38.132  24.043160     6.8400    -0.1536     0.5112     0.5076 1.1628e-01     8.6398      6.324      9.171     6.5268 0.0000e+00
      6.446     -0.009     9.7150     79.421     38.062  23.998329     6.8400    -0.1002     0.5112     0.5076 1.1605e-01     8.6398      6.322      9.168     6.5264 0.0000e+00
      6.444     -0.010     9.7276     79.482     38.005  23.962177     6.8400    -0.1231     0.5112     0.5076 1.1623e-01     8.7450      6.319      9.165     6.5259 0.0000e+00
      6.441     -0.011     9.7380     79.549     37.962  23.934962     6.8400    -0.1155     0.5112     0.5076 1.1612e-01    10.9995      6.317      9.162     6.5253 0.0000e+00
      6.438     -0.013     9.7470     79.636     37.932  23.915365     6.8400    -0.1155     0.5112     0.5076 1.1625e-01    11.0446      6.314      9.158     6.5247 0.0000e+00
      6.435     -0.014     9.7552     79.744     37.912  23.902118     7.0200    -0.0964     0.3834     0.1269 1.1635e-01    11.0446      6.311      9.153     6.5242 0.0000e+00
      6.431     -0.016     9.7628     79.883     37.905  23.897627     7.0200    -0.1269     0.3834     0.1269 1.1597e-01    11.0897      6.307      9.148     6.5236 0.0000e+00
      6.427     -0.017     9.7712     80.067     37.904  23.896736     7.0200    -0.1269     0.3834     0.1269 1.1623e-01     9.8572      6.303      9.141     6.5231 0.0000e+00
      6.422     -0.018     9.7820     80.302     37.896  23.891290     7.0200    -0.1117     0.3834     0.1269 1.1643e-01     9.8272      6.298      9.134     6.5226 0.0000e+00
      6.417     -0.018     9.7954     80.596     37.884  23.883794     7.0200    -0.1155     0.3834     0.4230 1.1620e-01     9.8572      6.293      9.127     6.5221 0.0000e+00
      6.412     -0.019     9.8125     80.939     37.885  23.884128     7.0200    -0.1041     0.3834     0.4230 1.1633e-01     9.9023      6.288      9.120     6.5216 0.0000e+00
      6.407     -0.018     9.8352     81.308     37.907  23.898317     7.0200    -0.1193     0.3834     0.4230 1.1623e-01     2.2670      6.284      9.113     6.5212 0.0000e+00
      6.403     -0.018     9.8642     81.683     37.958  23.930147     7.0200    -0.1079     0.3834     0.4230 1.1625e-01     2.4023      6.279      9.107     6.5209 0.0000e+00
      6.398     -0.017     9.9003     82.041     38.043  23.984146     7.0200    -0.1193     0.3408     0.3807 1.1628e-01     2.3722      6.275      9.100     6.5207 0.0000e+00
      6.394     -0.016     9.9425     82.359     38.170  24.064816     7.0200    -0.1308     0.3408     0.3807 1.1628e-01     2.2670      6.270      9.094     6.5205 0.0000e+00
      6.390     -0.015     9.9879     82.612     38.360  24.185752     7.0200    -0.1231     0.3408     0.3807 1.1617e-01    20.8893      6.266      9.089     6.5205 0.0000e+00
      6.386     -0.013    10.0339     82.790     38.662  24.377223     7.0200    -0.1231     0.3408     0.3807 1.1617e-01    20.9795      6.263      9.083     6.5206 0.0000e+00
      6.383     -0.012    10.0778     82.900     39.156  24.690289     7.0200    -0.1346     0.3408     0.3384 1.1617e-01    20.9344      6.260      9.079     6.5210 0.0000e+00
      6.380     -0.010    10.1166     82.953     39.756  25.069865     7.0200    -0.1269     0.3408     0.3384 1.1617e-01    20.9344      6.257      9.075     6.5218 0.0000e+00
      6.378     -0.009    10.1474     82.948     40.089  25.280639     7.0200    -0.0621     0.3408     0.3384 1.1602e-01    31.8463      6.254      9.071     6.5230 0.0000e+00
      6.376     -0.008    10.1688     82.876     39.995  25.222430     7.0200    -0.0621     0.3408     0.3384 1.1633e-01    31.8163      6.253      9.069     6.5246 0.0000e+00
      6.375     -0.008    10.1819     82.730     39.718  25.047985     7.0200    -0.0430     0.3408     0.3384 1.1607e-01    31.8313      6.251      9.067     6.5263 0.0000e+00
      6.373     -0.010    10.1880     82.493     39.453  24.881035     7.0200    -0.0621     0.3408     0.3807 1.1612e-01    31.9064      6.250      9.065     6.5279 0.0000e+00
      6.371     -0.012    10.1870     82.141     39.212  24.728530     7.0200     0.0638     0.3408     0.3807 1.1628e-01    86.2103      6.248      9.062     6.5291 0.0000e+00
      6.368     -0.016    10.1780     81.650     38.983  24.583453     7.0200     0.0791     0.3408     0.3807 1.1630e-01    86.1051      6.245      9.058     6.5300 0.0000e+00
      6.364     -0.021    10.1600     81.018     38.802  24.468484     7.0200     0.0867     0.3408     0.3807 1.1615e-01    86.0149      6.241      9.051     6.5303 0.0000e+00
      6.358     -0.028    10.1309     80.286     38.689  24.396512     7.0200     0.0600     0.5112     0.5922 1.1607e-01    86.0901      6.235      9.043     6.5302 0.0000e+00
      6.351     -0.037    10.0878     79.524     38.626  24.356264     7.0200     0.3346     0.5112     0.5922 1.2645e-01   104.4719      6.228      9.033     6.5298 0.0000e+00
      6.342     -0.047    10.0276     78.811     38.577  24.325129     7.0200     0.3346     0.5112     0.5922 1.1623e-01   104.3968      6.219      9.020     6.5290 0.0000e+00
      6.330     -0.061     9.9503     78.222     38.522  24.290847     7.0200     0.2851     0.5112     0.5922 1.1633e-01   104.4569      6.208      9.003     6.5282 0.0000e+00
      6.314     -0.077     9.8606     77.819     38.479  24.264069     6.9300     0.3118     0.4260     0.5922 1.2895e-01   104.4719      6.192      8.981     6.5274 0.0000e+00
      6.294     -0.095     9.7671     77.640     38.462  24.253491     6.9300     0.0943     0.4260     0.5922 1.2596e-01    69.4668      6.172      8.951     6.5269 0.0000e+00
      6.267     -0.113     9.6796     77.682     38.459  24.252334     6.9300     0.0600     0.4260     0.5922 1.2000e-01    69.5118      6.146      8.914     6.5267 0.0000e+00
      6.235     -0.129     9.6073     77.909     38.417  24.226638     6.9300     0.0791     0.4260     0.5922 1.2341e-01    69.4517      6.115      8.868     6.5267 0.0000e+00
      6.198     -0.142     9.5577     78.265     38.305  24.155693     6.9300     0.0676     0.3834     0.5499 1.5290e-01    69.5118      6.078      8.815     6.5270 0.0000e+00
      6.156     -0.150     9.5355     78.696     38.169  24.070068     6.9300     0.0676     0.3834     0.5499 1.6740e-01    51.3254      6.037      8.756     6.5276 0.0000e+00
      6.113     -0.153     9.5406     79.150     38.060  24.000377     6.9300     0.0791     0.3834     0.5499 1.6971e-01    51.1751      5.995      8.695     6.5284 0.0000e+00
      6.072     -0.152     9.5682     79.582     37.988  23.953768     6.9300     0.0752     0.3834     0.5499 2.0334e-01    51.1901      5.955      8.636     6.5290 0.0000e+00
      6.034     -0.148     9.6119     79.964     37.948  23.927711     6.9300     0.0714     0.3834     0.5499 1.7287e-01    51.2202      5.917      8.581     6.5293 0.0000e+00
      5.998     -0.143     9.6650     80.287     37.921  23.909317     6.9300     0.6894     0.5538     2.4111 1.9355e-01    76.3656      5.882      8.530     6.5290 0.0000e+00
      5.963     -0.139     9.7210     80.566     37.891  23.889722     6.9300     0.6818     0.5538     2.4111 2.2306e-01    76.3205      5.848      8.482     6.5280 0.0000e+00
      5.930     -0.137     9.7743     80.821     37.864  23.871620     6.9300     0.6856     0.5538     2.4111 2.0223e-01    76.2153      5.815      8.434     6.5266 0.0000e+00
      5.896     -0.137     9.8216     81.062     37.840  23.856121     6.9300     0.7009     0.5538     2.4111 2.0498e-01    76.3055      5.782      8.386     6.5251 0.0000e+00
      5.862     -0.139     9.8616     81.304     37.820  23.843052     7.0200     1.1052     0.4260     1.8189 2.2613e-01    33.2592      5.748      8.337     6.5237 0.0000e+00
      5.827     -0.142     9.8961     81.565     37.817  23.840803     7.0200     1.0976     0.4260     1.8189 2.4780e-01    33.3493      5.714      8.287     6.5226 0.0000e+00
      5.790     -0.146     9.9277     81.847     37.829  23.848776     7.0200     1.1090     0.4260     1.8189 2.4448e-01    33.1539      5.678      8.236     6.5216 0.0000e+00
      5.752     -0.150     9.9574     82.136     37.837  23.853260     7.0200     1.0747     0.4260     1.8189 2.9242e-01    33.1990      5.641      8.182     6.5209 0.0000e+00
      5.713     -0.154     9.9873     82.415     37.834  23.851493     7.0200     1.0938     0.3834     0.5499 2.8047e-01    32.3273      5.603      8.126     6.5203 0.0000e+00
      5.673     -0.156    10.0196     82.666     37.827  23.846963     7.0200     1.0785     0.3834     0.5499 3.1856e-01    32.2972      5.563      8.068     6.5199 0.0000e+00
      5.632     -0.158    10.0542     82.877     37.813  23.838460     7.0200     1.0976     0.3834     0.5499 3.6025e-01    32.3423      5.523      8.010     6.5196 0.0000e+00
      5.591     -0.158    10.0898     83.046     37.796  23.827677     7.0200     1.0900     0.3834     0.5499 3.4016e-01    32.2070      5.483      7.952     6.5195 0.0000e+00
      5.551     -0.158    10.1241     83.168     37.783  23.819656     7.0200     1.0862     0.3834     0.5499 3.4915e-01    29.1559      5.443      7.895     6.5195 0.0000e+00
      5.511     -0.157    10.1548     83.239     37.784  23.820177     7.0200     1.0823     0.3408     0.2961 3.6960e-01    29.1559      5.404      7.838     6.5196 0.0000e+00
      5.471     -0.155    10.1808     83.270     37.799  23.829378     7.0200     1.0900     0.3408     0.2961 3.6792e-01    29.1259      5.365      7.781     6.5196 0.0000e+00
      5.431     -0.153    10.2016     83.263     37.812  23.837836     7.0200     1.0938     0.3408     0.2961 4.2790e-01    29.1559      5.326      7.725     6.5196 0.0000e+00
      5.392     -0.151    10.2165     83.225     37.816  23.839888     7.0200     1.2235     0.3408     0.2961 4.1852e-01    16.9064      5.288      7.669     6.5195 0.0000e+00
      5.354     -0.148    10.2253     83.170     37.816  23.840040     7.0200     1.2273     0.3408     0.3384 4.2586e-01    16.9064      5.250      7.615     6.5195 0.0000e+00
      5.316     -0.146    10.2291     83.109     37.813  23.838334     7.0200     1.2464     0.3408     0.3384 4.6544e-01    16.9214      5.214      7.561     6.5195 0.0000e+00
      5.280     -0.144    10.2282     83.045     37.801  23.830356     7.0200     1.2235     0.3408     0.3384 4.6575e-01    16.9364      5.178      7.509     6.5195 0.0000e+00
      5.244     -0.142    10.2236     82.986     37.781  23.817937     7.0200     1.1586     0.3408     0.3384 5.1047e-01    13.5997      5.143      7.459     6.5196 0.0000e+00
      5.208     -0.142    10.2169     82.941     37.755  23.801725     7.0200     1.1663     0.3408     0.2538 5.4950e-01    13.6448      5.108      7.408     6.5196 0.0000e+00
      5.173     -0.142    10.2094     82.909     37.730  23.785313     7.0200     1.1815     0.3408     0.2538 5.3512e-01    13.6599      5.073      7.357     6.5195 0.0000e+00
      5.136     -0.144    10.2015     82.886     37.722  23.780160     7.0200     1.1624     0.3408     0.2538 5.7804e-01    13.6448      5.037      7.306     6.5195 0.0000e+00
      5.100     -0.145    10.1943     82.870     37.730  23.784894     7.0200     1.2273     0.3408     0.2538 6.0371e-01    13.9003      5.001      7.254     6.5194 0.0000e+00
      5.062     -0.146    10.1888     82.852     37.730  23.784939     7.0200     1.2006     0.2982     0.2538 6.3465e-01    13.7801      4.965      7.201     6.5192 0.0000e+00
      5.025     -0.146    10.1849     82.832     37.723  23.780310     7.0200     1.1930     0.2982     0.2538 6.5625e-01    13.9003      4.927      7.147     6.5190 0.0000e+00
      4.986     -0.145    10.1822     82.816     37.725  23.781647     7.0200     1.2273     0.2982     0.2538 7.2382e-01    13.8703      4.890      7.092     6.5187 0.0000e+00
      4.948     -0.142    10.1803     82.798     37.731  23.785349     7.0200     1.2006     0.2982     0.2538 7.5630e-01    12.0065      4.853      7.038     6.5184 0.0000e+00
      4.911     -0.138    10.1781     82.773     37.729  23.784484     7.0200     1.2311     0.2982     0.2538 8.7998e-01    11.9765      4.816      6.986     6.5181 0.0000e+00
      4.876     -0.133    10.1757     82.745     37.726  23.782782     7.1100     1.2120     0.3408     0.2961 8.2569e-01    12.0216      4.782      6.936     6.5179 0.0000e+00
      4.844     -0.127    10.1737     82.717     37.728  23.783747     7.1100     1.1968     0.3408     0.2961 8.1926e-01    11.9915      4.750      6.889     6.5179 0.0000e+00
      4.813     -0.121    10.1715     82.689     37.740  23.791596     7.1100     1.3494     0.3408     0.2961 8.9560e-01    11.0296      4.720      6.846     6.5180 0.0000e+00
      4.783     -0.116    10.1683     82.662     37.757  23.802483     7.1100     1.3303     0.3408     0.2961 9.1250e-01    10.9093      4.691      6.803     6.5183 0.0000e+00
      4.754     -0.111    10.1648     82.636     37.755  23.801497     7.0200     1.3379     0.3834     0.2115 9.5199e-01    11.0146      4.662      6.762     6.5186 0.0000e+00
      4.726     -0.106    10.1614     82.611     37.738  23.790353     7.0200     1.3417     0.3834     0.2115 9.9687e-01    11.0296      4.635      6.722     6.5189 0.0000e+00
      4.699     -0.102    10.1579     82.592     37.722  23.779937     7.0200     1.2540     0.3834     0.2115 1.0839e+00    11.0296      4.608      6.684     6.5192 0.0000e+00
      4.674     -0.098    10.1545     82.583     37.709  23.771429     7.0200     1.2845     0.3834     0.2115 1.0745e+00    11.0596      4.583      6.648     6.5193 0.0000e+00
      4.650     -0.095    10.1513     82.581     37.702  23.766520     7.1100     1.2769     0.2982     0.2538 1.0518e+00    11.0296      4.560      6.614     6.5192 0.0000e+00
      4.627     -0.094    10.1483     82.579     37.705  23.767860     7.1100     1.2731     0.2982     0.2538 1.0708e+00    10.9845      4.538      6.581     6.5190 0.0000e+00
      4.605     -0.094    10.1460     82.571     37.718  23.775806     7.1100     1.3074     0.2982     0.2538 1.0815e+00     9.8572      4.516      6.550     6.5186 0.0000e+00
      4.582     -0.096    10.1450     82.554     37.739  23.788518     7.1100     1.2807     0.2982     0.2538 1.1050e+00     9.8572      4.493      6.517     6.5181 0.0000e+00
      4.557     -0.099    10.1449     82.533     37.753  23.797509     7.0200     1.2731     0.3408     0.3384 1.1619e+00     9.8873      4.469      6.482     6.5176 0.0000e+00
      4.531     -0.102    10.1448     82.510     37.753  23.797258     7.0200     1.2654     0.3408     0.3384 1.1647e+00     9.8873      4.444      6.445     6.5170 0.0000e+00
      4.504     -0.104    10.1440     82.489     37.738  23.787700     7.0200     1.3379     0.3408     0.3384 1.2535e+00    10.8192      4.417      6.406     6.5165 0.0000e+00
      4.476     -0.104    10.1421     82.467     37.716  23.774204     7.0200     1.3494     0.3408     0.3384 1.3183e+00    10.8342      4.389      6.366     6.5161 0.0000e+00
      4.448     -0.103    10.1395     82.444     37.701  23.765046     7.0200     1.3303     0.3408     0.3384 1.3858e+00    10.8041      4.362      6.327     6.5159 0.0000e+00
      4.421     -0.100    10.1367     82.420     37.696  23.761744     7.0200     1.3379     0.3834     0.2538 1.4203e+00    10.8342      4.336      6.288     6.5158 0.0000e+00
      4.396     -0.096    10.1341     82.392     37.706  23.767376     7.0200     1.2807     0.3834     0.2538 1.4537e+00     9.9925      4.311      6.253     6.5158 0.0000e+00
      4.373     -0.092    10.1314     82.362     37.731  23.783444     7.0200     1.2807     0.3834     0.2538 1.4760e+00    10.0677      4.288      6.219     6.5159 0.0000e+00
      4.351     -0.090    10.1286     82.336     37.755  23.798397     7.0200     1.2731     0.3834     0.2538 1.4645e+00    10.0827      4.266      6.188     6.5159 0.0000e+00
      4.329     -0.089    10.1257     82.314     37.765  23.804345     7.0200     1.2731     0.2982     0.2961 1.4374e+00    10.1578      4.245      6.157     6.5158 0.0000e+00
      4.307     -0.091    10.1223     82.293     37.769  23.806835     7.0200     1.2769     0.2982     0.2961 1.4966e+00     9.7069      4.224      6.127     6.5155 0.0000e+00
      4.285     -0.094    10.1186     82.271     37.769  23.806530     7.0200     1.2616     0.2982     0.2961 1.4837e+00     9.6017      4.202      6.094     6.5152 0.0000e+00
      4.261     -0.098    10.1155     82.253     37.757  23.799389     7.0200     1.2807     0.2982     0.2961 1.5146e+00     9.5867      4.178      6.060     6.5150 0.0000e+00
      4.235     -0.103    10.1129     82.240     37.738  23.787468     7.0200     1.2731     0.3408     0.2538 1.5836e+00     9.6769      4.153      6.024     6.5148 0.0000e+00
      4.208     -0.108    10.1103     82.224     37.718  23.775505     7.0200     1.4066     0.3408     0.2538 1.5909e+00    10.3232      4.126      5.985     6.5148 0.0000e+00
      4.179     -0.113    10.1075     82.200     37.706  23.768228     7.0200     1.4104     0.3408     0.2538 1.6677e+00    10.3833      4.098      5.944     6.5149 0.0000e+00
      4.149     -0.116    10.1053     82.167     37.704  23.767655     7.0200     1.4066     0.3408     0.2538 1.7596e+00    10.3232      4.069      5.901     6.5152 0.0000e+00
      4.118     -0.117    10.1036     82.132     37.706  23.769675     7.0200     1.4104     0.2982     0.2115 1.8120e+00    10.3833      4.039      5.857     6.5155 0.0000e+00
      4.087     -0.117    10.1015     82.107     37.714  23.774827     7.0200     1.3150     0.2982     0.2115 1.9224e+00    13.1639      4.008      5.813     6.5160 0.0000e+00
      4.057     -0.115    10.0985     82.089     37.729  23.784484     7.0200     1.3417     0.2982     0.2115 2.0581e+00    13.1789      3.978      5.770     6.5165 0.0000e+00
      4.028     -0.113    10.0942     82.077     37.743  23.793304     7.0200     1.3341     0.2982     0.2115 2.0707e+00    13.2691      3.950      5.729     6.5170 0.0000e+00
      4.000     -0.110    10.0898     82.077     37.753  23.799680     7.0200     1.3303     0.2982     0.2115 2.1286e+00    13.2240      3.922      5.689     6.5175 0.0000e+00
      3.972     -0.109    10.0866     82.092     37.762  23.805312     7.0200     1.4066     0.3408     0.4230 2.1891e+00     9.9023      3.896      5.650     6.5180 0.0000e+00
      3.946     -0.108    10.0843     82.114     37.766  23.807743     7.0200     1.3990     0.3408     0.4230 2.2572e+00     9.9023      3.869      5.612     6.5183 0.0000e+00
      3.919     -0.109    10.0827     82.141     37.760  23.803662     7.0200     1.4219     0.3408     0.4230 2.3184e+00     9.8873      3.843      5.574     6.5185 0.0000e+00
      3.892     -0.112    10.0828     82.174     37.747  23.795941     7.0200     1.4142     0.3408     0.4230 2.3611e+00     9.8422      3.816      5.535     6.5186 0.0000e+00
      3.863     -0.116    10.0846     82.210     37.732  23.786479     7.0200     1.3951     0.3408     0.2115 2.4409e+00     9.8272      3.788      5.495     6.5187 0.0000e+00
      3.834     -0.121    10.0873     82.243     37.716  23.776712     7.0200     1.3913     0.3408     0.2115 2.5355e+00     9.8572      3.759      5.452     6.5187 0.0000e+00
      3.802     -0.126    10.0906     82.271     37.709  23.771953     7.0200     1.3913     0.3408     0.2115 2.6218e+00     9.8572      3.728      5.408     6.5187 0.0000e+00
      3.769     -0.129    10.0947     82.297     37.713  23.774893     7.0200     1.4104     0.3408     0.2115 2.8271e+00     9.8572      3.696      5.360     6.5187 0.0000e+00
      3.734     -0.132    10.0991     82.323     37.718  23.778396     7.0200     1.4028     0.3408     0.3384 2.9759e+00    11.9915      3.662      5.311     6.5187 0.0000e+00
      3.699     -0.133    10.1032     82.351     37.713  23.775481     7.0200     1.4028     0.3408     0.3384 3.1006e+00    11.9614      3.627      5.261     6.5187 0.0000e+00
      3.664     -0.132    10.1066     82.385     37.703  23.769327     7.0200     1.4371     0.3408     0.3384 3.2475e+00    11.9915      3.593      5.211     6.5189 0.0000e+00
      3.630     -0.130    10.1097     82.420     37.698  23.766211     7.0200     1.4104     0.3408     0.3384 3.3807e+00    12.0366      3.560      5.163     6.5191 0.0000e+00
      3.597     -0.126    10.1128     82.444     37.708  23.773222     7.0200     1.3570     0.3408     0.3384 3.4981e+00    11.5406      3.528      5.116     6.5194 0.0000e+00
      3.565     -0.123    10.1161     82.450     37.731  23.788269     7.0200     1.3303     0.3408     0.2961 3.5975e+00    11.5256      3.496      5.071     6.5198 0.0000e+00
      3.535     -0.120    10.1201     82.435     37.749  23.799530     7.0200     1.3379     0.3408     0.2961 3.7483e+00    11.4204      3.466      5.027     6.5202 0.0000e+00
      3.505     -0.117    10.1244     82.397     37.752  23.802090     7.0200     1.3379     0.3408     0.2961 3.8683e+00    11.4504      3.437      4.985     6.5207 0.0000e+00
      3.476     -0.115    10.1272     82.339     37.750  23.800589     7.0200     1.4638     0.3408     0.2961 3.9636e+00    10.3232      3.408      4.943     6.5212 0.0000e+00
      3.447     -0.113    10.1278     82.270     37.747  23.798588     7.0200     1.4447     0.3408     0.2961 4.0226e+00    10.2480      3.380      4.903     6.5217 0.0000e+00
      3.419     -0.113    10.1259     82.202     37.736  23.791594     7.0200     1.4676     0.3408     0.2961 4.1858e+00    10.3232      3.353      4.863     6.5221 0.0000e+00
      3.390     -0.114    10.1211     82.154     37.721  23.781700     7.0200     1.4791     0.3408     0.2961 4.3095e+00    10.3683      3.325      4.822     6.5222 0.0000e+00
      3.362     -0.116    10.1141     82.140     37.721  23.782103     7.0200     1.2769     0.3408     0.2961 4.4349e+00    10.2781      3.297      4.782     6.5222 0.0000e+00
      3.333     -0.121    10.1056     82.157     37.738  23.792911     7.0200     1.2998     0.2982     0.2961 4.3575e+00    10.3532      3.269      4.742     6.5220 0.0000e+00
      3.303     -0.126    10.0973     82.197     37.751  23.801170     7.0200     1.2654     0.2982     0.2961 4.5176e+00    10.3983      3.240      4.699     6.5218 0.0000e+00
      3.271     -0.131    10.0915     82.248     37.756  23.805125     7.0200     1.2807     0.2982     0.2961 4.7470e+00    10.3081      3.207      4.652     6.5216 0.0000e+00
      3.235     -0.135    10.0897     82.296     37.763  23.809788     7.0200     1.2921     0.2982     0.2961 5.1032e+00    11.6909      3.173      4.602     6.5216 0.0000e+00
      3.198     -0.138    10.0918     82.331     37.766  23.812444     7.0200     1.2921     0.3408     0.3807 5.4364e+00    11.6158      3.136      4.549     6.5217 0.0000e+00
      3.161     -0.140    10.0966     82.351     37.755  23.805885     7.0200     1.2769     0.3408     0.3807 5.6606e+00    11.7961      3.100      4.496     6.5222 0.0000e+00
      3.125     -0.141    10.1027     82.356     37.733  23.792319     7.0200     1.2769     0.3408     0.3807 5.8992e+00    11.6308      3.064      4.445     6.5228 0.0000e+00
      3.090     -0.141    10.1084     82.352     37.720  23.783964     7.0200     1.3227     0.3408     0.3807 5.9210e+00    11.7059      3.030      4.395     6.5236 0.0000e+00
      3.055     -0.142    10.1125     82.346     37.717  23.782552     7.0200     1.3379     0.3408     0.3807 6.0880e+00    11.8412      2.996      4.345     6.5243 0.0000e+00
      3.020     -0.144    10.1148     82.343     37.719  23.783747     7.0200     1.3379     0.3408     0.2961 6.3158e+00    11.7360      2.961      4.295     6.5249 0.0000e+00
      2.983     -0.147    10.1153     82.345     37.719  23.783909     7.0200     1.3494     0.3408     0.2961 6.5010e+00    11.6759      2.925      4.243     6.5254 0.0000e+00
      2.945     -0.150    10.1147     82.351     37.718  23.783081     7.0200     1.3532     0.3408     0.2961 6.9013e+00    12.2019      2.888      4.188     6.5257 0.0000e+00
      2.905     -0.153    10.1140     82.355     37.722  23.785001     7.0200     1.2998     0.3408     0.2961 7.2676e+00    12.2170      2.849      4.132     6.5259 0.0000e+00
      2.865     -0.155    10.1136     82.352     37.724  23.786223     7.0200     1.3417     0.3408     0.2961 7.5673e+00    12.1268      2.809      4.075     6.5259 0.0000e+00
      2.825     -0.156    10.1139     82.341     37.725  23.787073     7.0200     1.3189     0.3408     0.2961 7.7808e+00    12.2921      2.770      4.018     6.5258 0.0000e+00
      2.785     -0.156    10.1146     82.323     37.732  23.791735     7.0200     1.3608     0.3408     0.2961 8.1070e+00    11.2099      2.730      3.960     6.5257 0.0000e+00
      2.744     -0.155    10.1152     82.300     37.735  23.793536     7.0200     1.3570     0.3408     0.2961 8.6343e+00    11.3452      2.691      3.903     6.5255 0.0000e+00
      2.704     -0.154    10.1148     82.278     37.727  23.788997     7.1100     1.3303     0.2982     0.2961 8.8144e+00    11.3452      2.652      3.847     6.5254 0.0000e+00
      2.665     -0.152    10.1134     82.261     37.720  23.784824     7.1100     1.3379     0.2982     0.2961 9.1481e+00    11.3452      2.614      3.791     6.5253 0.0000e+00
      2.627     -0.150    10.1112     82.248     37.711  23.779907     7.1100     1.3837     0.2982     0.2961 9.3287e+00    10.5636      2.576      3.736     6.5254 0.0000e+00
      2.589     -0.148    10.1084     82.236     37.706  23.776891     7.1100     1.4791     0.2982     0.2961 9.8560e+00    10.5787      2.539      3.683     6.5255 0.0000e+00
      2.551     -0.146    10.1056     82.228     37.715  23.782891     7.1100     1.4600     0.3408     0.3384 1.0149e+01    10.5636      2.502      3.629     6.5259 0.0000e+00
      2.514     -0.144    10.1034     82.221     37.729  23.791590     7.1100     1.4638     0.3408     0.3384 1.0529e+01    10.5186      2.466      3.576     6.5265 0.0000e+00
      2.478     -0.142    10.1016     82.217     37.732  23.793429     7.1100     1.4562     0.3408     0.3384 1.0730e+01    10.6238      2.430      3.524     6.5272 0.0000e+00
      2.442     -0.140    10.1000     82.219     37.725  23.788900     7.1100     1.2769     0.3408     0.3384 1.1187e+01    10.7590      2.395      3.474     6.5276 0.0000e+00
      2.407     -0.139    10.0990     82.220     37.712  23.780754     7.1100     1.3074     0.3408     0.3384 1.1525e+01    10.8642      2.361      3.424     6.5279 0.0000e+00
      2.372     -0.138    10.0982     82.215     37.696  23.770777     7.0200     1.2693     0.3408     0.3384 1.1676e+01    10.8342      2.326      3.374     6.5280 0.0000e+00
      2.337     -0.137    10.0977     82.212     37.693  23.768186     7.0200     1.2807     0.3408     0.3384 1.1995e+01    10.6989      2.292      3.325     6.5279 0.0000e+00
      2.302     -0.136    10.0979     82.211     37.706  23.776248     7.0200     1.3456     0.3408     0.3384 1.2613e+01    10.8041      2.258      3.275     6.5278 0.0000e+00
      2.267     -0.135    10.0980     82.207     37.727  23.789195     7.0200     1.3150     0.3408     0.3384 1.3176e+01    10.7741      2.223      3.225     6.5276 0.0000e+00
      2.232     -0.134    10.0976     82.201     37.748  23.802563     7.0200     1.3417     0.3408     0.2961 1.3548e+01    10.7290      2.189      3.175     6.5274 0.0000e+00
      2.198     -0.132    10.0972     82.196     37.762  23.811999     7.0200     1.3532     0.3408     0.2961 1.3896e+01    10.8192      2.156      3.127     6.5272 0.0000e+00
      2.165     -0.130    10.0971     82.196     37.762  23.812100     7.0200     1.3494     0.3408     0.2961 1.4701e+01     9.9925      2.123      3.079     6.5269 0.0000e+00
      2.132     -0.128    10.0967     82.203     37.747  23.802893     7.0200     1.3150     0.3408     0.2961 1.5053e+01    10.1428      2.091      3.033     6.5269 0.0000e+00
      2.100     -0.127    10.0960     82.214     37.732  23.793801     7.0200     1.3456     0.3408     0.2115 1.5073e+01    10.0677      2.060      2.987     6.5270 0.0000e+00
      2.068     -0.127    10.0952     82.230     37.720  23.786357     7.0200     1.3303     0.3408     0.2115 1.5852e+01     9.9925      2.029      2.942     6.5274 0.0000e+00
      2.036     -0.128    10.0951     82.253     37.708  23.778577     7.0200     1.4295     0.3408     0.2115 1.6474e+01     9.9324      1.997      2.897     6.5279 0.0000e+00
      2.004     -0.129    10.0958     82.283     37.704  23.776304     7.0200     1.4142     0.3408     0.2115 1.6549e+01     9.9023      1.965      2.850     6.5283 0.0000e+00
      1.971     -0.130    10.0972     82.314     37.709  23.778931     7.0200     1.3990     0.3408     0.2538 1.7618e+01     9.7670      1.933      2.804     6.5285 0.0000e+00
      1.938     -0.132    10.0991     82.334     37.709  23.779242     7.0200     1.3875     0.3408     0.2538 1.8103e+01     9.9174      1.900      2.756     6.5285 0.0000e+00
      1.904     -0.133    10.1019     82.338     37.707  23.777319     7.0200     1.2807     0.3408     0.2538 1.8638e+01     9.5416      1.867      2.708     6.5284 0.0000e+00
      1.870     -0.134    10.1057     82.330     37.712  23.780567     7.0200     1.2654     0.3408     0.2538 1.9678e+01     9.7670      1.834      2.659     6.5281 0.0000e+00
      1.835     -0.134    10.1096     82.313     37.721  23.785894     7.0200     1.2464     0.3408     0.2538 1.9989e+01     9.6618      1.800      2.610     6.5279 0.0000e+00
      1.801     -0.134    10.1122     82.287     37.722  23.786803     7.0200     1.2921     0.3408     0.2115 2.0795e+01     9.6017      1.766      2.562     6.5276 0.0000e+00
      1.767     -0.134    10.1126     82.258     37.717  23.783535     7.0200     1.3570     0.3408     0.2115 2.1994e+01     9.6769      1.733      2.513     6.5274 0.0000e+00
      1.733     -0.133    10.1117     82.233     37.710  23.779178     7.0200     1.3494     0.3408     0.2115 2.1479e+01     9.5867      1.699      2.465     6.5272 0.0000e+00
      1.699     -0.132    10.1097     82.216     37.705  23.776530     7.0200     1.3608     0.3408     0.2115 2.3242e+01     9.4815      1.666      2.417     6.5270 0.0000e+00
      1.665     -0.130    10.1065     82.206     37.702  23.774885     7.0200     1.3379     0.3408     0.1692 2.3126e+01     9.5416      1.633      2.369     6.5270 0.0000e+00
      1.632     -0.129    10.1029     82.195     37.700  23.773803     7.0200     1.3646     0.3408     0.1692 2.2966e+01     9.5717      1.600      2.321     6.5272 0.0000e+00
      1.599     -0.126    10.0998     82.184     37.699  23.772995     7.0200     1.3456     0.3408     0.1692 2.4301e+01     9.5566      1.568      2.275     6.5275 0.0000e+00
      1.567     -0.124    10.0976     82.177     37.704  23.776206     7.0200     1.3608     0.3408     0.1692 2.4428e+01     9.6468      1.537      2.229     6.5278 0.0000e+00
      1.536     -0.122    10.0962     82.173     37.711  23.780334     7.0200     1.3532     0.2982     0.2538 2.3919e+01     9.5867      1.506      2.184     6.5281 0.0000e+00
      1.505     -0.120    10.0949     82.170     37.709  23.778560     7.0200     1.4600     0.2982     0.2538 2.5095e+01     9.6618      1.476      2.141     6.5283 0.0000e+00
      1.476     -0.120    10.0935     82.166     37.703  23.774370     7.0200     1.4714     0.2982     0.2538 2.5871e+01     9.6769      1.447      2.099     6.5282 0.0000e+00
      1.446     -0.121    10.0928     82.160     37.704  23.774566     7.0200     1.4714     0.2982     0.2538 2.5353e+01     9.7220      1.418      2.057     6.5280 0.0000e+00
      1.416     -0.122    10.0924     82.153     37.717  23.783159     7.0200     1.4562     0.2982     0.2961 2.7250e+01     9.4664      1.388      2.014     6.5276 0.0000e+00
      1.384     -0.125    10.0920     82.147     37.735  23.794522     7.0200     1.2044     0.2982     0.2961 2.7488e+01    10.2781      1.358      1.969     6.5272 0.0000e+00
      1.352     -0.129    10.0917     82.141     37.749  23.803767     7.0200     1.2006     0.2982     0.2961 2.6261e+01    10.3683      1.326      1.923     6.5268 0.0000e+00
      1.319     -0.133    10.0910     82.140     37.764  23.813359     7.0200     1.2120     0.2982     0.2961 2.9035e+01    10.3232      1.294      1.876     6.5266 0.0000e+00
      1.285     -0.137    10.0902     82.147     37.777  23.821899     7.0200     1.2159     0.2982     0.2961 2.7649e+01    10.2480      1.260      1.827     6.5265 0.0000e+00
      1.249     -0.139    10.0894     82.162     37.779  23.823745     7.0200     1.2807     0.3834     0.2538 2.7386e+01    10.9995      1.225      1.776     6.5267 0.0000e+00
      1.212     -0.141    10.0885     82.178     37.765  23.815430     7.0200     1.2921     0.3834     0.2538 2.8448e+01    11.0747      1.188      1.723     6.5271 0.0000e+00
      1.175     -0.141    10.0882     82.193     37.744  23.802656     7.0200     1.2807     0.3834     0.2538 2.8915e+01    11.0596      1.152      1.671     6.5277 0.0000e+00
      1.138     -0.140    10.0890     82.203     37.730  23.793892     7.0200     1.2769     0.3834     0.2538 2.8367e+01    11.0897      1.116      1.619     6.5284 0.0000e+00
      1.103     -0.140    10.0906     82.208     37.725  23.790761     7.0200     1.3074     0.3408     0.2538 2.8609e+01     9.5717      1.081      1.568     6.5292 0.0000e+00
      1.068     -0.139    10.0924     82.208     37.727  23.792428     7.0200     1.2616     0.3408     0.2538 2.9448e+01     9.6318      1.047      1.519     6.5299 0.0000e+00
      1.033     -0.139    10.0940     82.198     37.732  23.795379     7.0200     1.2693     0.3408     0.2538 2.9016e+01     9.6017      1.013      1.470     6.5303 0.0000e+00
      0.998     -0.140    10.0952     82.181     37.727  23.792481     7.0200     1.2578     0.3408     0.2538 2.9397e+01     9.6017      0.979      1.420     6.5304 0.0000e+00
      0.963     -0.142    10.0959     82.168     37.718  23.786923     7.0200     1.2845     0.3408     0.2961 2.9218e+01    10.5787      0.944      1.369     6.5304 0.0000e+00
      0.926     -0.143    10.0958     82.165     37.715  23.785138     7.0200     1.2921     0.3408     0.2961 2.9828e+01    10.5336      0.908      1.317     6.5304 0.0000e+00
      0.889     -0.145    10.0947     82.167     37.717  23.786652     7.0200     1.2578     0.3408     0.2961 2.9873e+01    10.6087      0.872      1.264     6.5305 0.0000e+00
      0.852     -0.147    10.0926     82.168     37.724  23.791867     7.0200     1.2921     0.3408     0.2961 2.9867e+01    10.5186      0.835      1.211     6.5306 0.0000e+00
      0.814     -0.147    10.0909     82.165     37.734  23.798217     7.0200     1.2960     0.3408     0.2961 3.0656e+01     9.8723      0.798      1.157     6.5307 0.0000e+00
      0.776     -0.147    10.0904     82.167     37.735  23.799475     7.0200     1.2731     0.3408     0.2961 3.1452e+01     9.8572      0.761      1.103     6.5310 0.0000e+00
      0.738     -0.146    10.0906     82.180     37.722  23.792019     7.0200     1.2654     0.3408     0.2961 3.1126e+01     9.8121      0.724      1.049     6.5314 0.0000e+00
      0.700     -0.144    10.0906     82.201     37.698  23.777820     7.0200     1.2693     0.3408     0.2961 3.1768e+01     9.8121      0.686      0.995     6.5320 0.0000e+00
      0.663     -0.141    10.0901     82.220     37.671  23.761009     7.0200     1.2921     0.3408     0.2961 3.1962e+01     9.8873      0.650      0.943     6.5327 0.0000e+00
      0.627     -0.138    10.0900     82.233     37.651  23.748979     7.0200     1.2998     0.3408     0.4230 3.2778e+01     9.8873      0.615      0.892     6.5335 0.0000e+00
      0.593     -0.135    10.0914     82.242     37.646  23.746441     7.0200     1.2921     0.3408     0.4230 3.2487e+01     9.9624      0.582      0.844     6.5344 0.0000e+00
      0.560     -0.133    10.0938     82.242     37.655  23.752718     7.0200     1.2807     0.3408     0.4230 3.3136e+01     9.8272      0.549      0.796     6.5352 0.0000e+00
      0.527     -0.131    10.0959     82.230     37.668  23.761566     7.0200     1.4104     0.3408     0.4230 3.3316e+01     9.8272      0.517      0.749     6.5361 0.0000e+00
      0.494     -0.129    10.0973     82.204     37.671  23.763468     7.0200     1.3913     0.3408     0.2538 3.2820e+01     9.9174      0.484      0.702     6.5369 0.0000e+00
      0.460     -0.127    10.0981     82.167     37.663  23.758931     7.0200     1.4028     0.3408     0.2538 3.3996e+01     9.8873      0.451      0.655     6.5377 0.0000e+00
      0.427     -0.123    10.0980     82.130     37.655  23.754663     7.0200     1.4066     0.3408     0.2538 3.4181e+01     9.9925      0.419      0.607     6.5384 0.0000e+00
      0.395     -0.118    10.0964     82.102     37.653  23.753485     7.0200     1.3341     0.3408     0.2538 3.4092e+01    10.4434      0.387      0.561     6.5391 0.0000e+00
      0.365     -0.110    10.0931     82.080     37.649  23.751124     7.0200     1.3265     0.3408     0.2961 3.5553e+01    10.3081      0.357      0.518     6.5396 0.0000e+00
      0.337     -0.102    10.0884     82.058     37.642  23.746951     7.0200     1.3456     0.3408     0.2961 3.6826e+01    10.3833      0.330      0.479     6.5401 0.0000e+00
      0.312     -0.092    10.0838     82.042     37.643  23.747769     7.0200     1.3303     0.3408     0.2961 3.6683e+01    10.3532      0.306      0.443     6.5406 0.0000e+00
      0.290     -0.083    10.0803     82.038     37.652  23.753798     7.0200     1.3951     0.3408     0.2961 3.7505e+01     9.9023      0.284      0.412     6.5410 0.0000e+00
      0.271     -0.076    10.0774     82.047     37.666  23.762687     7.0200     1.4219     0.3408     0.2961 3.7464e+01     9.9324      0.266      0.386     6.5413 0.0000e+00
      0.254     -0.070    10.0746     82.070     37.681  23.772846     7.0200     1.4180     0.3408     0.2538 3.7832e+01     9.7971      0.250      0.362     6.5417 0.0000e+00
      0.239     -0.068    10.0725     82.101     37.691  23.779067     7.0200     1.4066     0.3408     0.2538 3.8521e+01     9.8572      0.234      0.339     6.5420 0.0000e+00
      0.223     -0.070    10.0719     82.134     37.697  23.783008     7.0200     1.4409     0.3408     0.2538 3.8196e+01     9.6318      0.219      0.317     6.5423 0.0000e+00
      0.206     -0.076    10.0730     82.162     37.707  23.789681     7.0200     1.4524     0.3408     0.2538 3.8354e+01     9.7670      0.203      0.294     6.5427 0.0000e+00
      0.188     -0.087    10.0757     82.179     37.713  23.792945     7.0200     1.4524     0.2982     0.2961 3.7709e+01     9.6318      0.185      0.268     6.5430 0.0000e+00
      0.167     -0.100    10.0794     82.177     37.714  23.793673     7.0200     1.4676     0.2982     0.2961 3.7497e+01     9.6618      0.164      0.238     6.5433 0.0000e+00
      0.141     -0.115    10.0834     82.151     37.729  23.803935     7.0200     1.3456     0.2982     0.2961 4.2074e+01    12.4124      0.138      0.201     6.5434 0.0000e+00
      0.108     -0.128    10.0869     82.103     37.752  23.818550     7.0200     1.3379     0.2982     0.2961 4.9381e+01    12.5627      0.106      0.154     6.5435 0.0000e+00
      0.070     -0.138    10.0890     82.043     37.763  23.825579     7.0200     1.3417     0.2982     0.2538 4.7954e+01    12.5176      0.069      0.101     6.5436 0.0000e+00
      0.030     -0.144    10.0887     81.983     37.758  23.822938     7.0200     1.3417     0.2982     0.2538 5.3574e+01    12.4424      0.030      0.043     6.5437 0.0000e+00
     -0.010     -0.148    10.0854     81.933     37.744  23.813881     7.0200     1.3303     0.2982     0.2538 6.3676e+01    14.5767     -0.010     -0.014     6.5441 0.0000e+00
     -0.047     -0.151    10.0794     81.896     37.722  23.799953     7.0200     1.3189     0.2982     0.2538 5.7407e+01    14.5917     -0.046     -0.067     6.5446 0.0000e+00
     -0.083     -0.155    10.0719     81.873     37.693  23.781398     7.0200     1.3417     0.3408     0.2961 6.1916e+01    14.6518     -0.082     -0.118     6.5450 0.0000e+00
     -0.119     -0.161    10.0645     81.862     37.655  23.757226     7.0200     1.3379     0.3408     0.2961 5.4786e+01    14.6819     -0.117     -0.170     6.5452 0.0000e+00
     -0.159     -0.169    10.0584     81.859     37.592  23.717034     7.0200     1.1090     0.3408     0.2961 6.9203e+01    20.2130     -0.156     -0.226     6.5450 0.0000e+00
     -0.204     -0.179    10.0540     81.856     37.485  23.650102     7.0200     1.0785     0.3408     0.2961 1.6476e+02    20.1679     -0.200     -0.290     6.5446 0.0000e+00
     -0.253     -0.189    10.0513     81.839     37.314  23.542543     7.0200     1.0747     0.3408     0.2961 1.4896e+02    20.2130     -0.248     -0.360     6.5441 0.0000e+00
     -0.304     -0.196    10.0500     81.793     37.032  23.365674     7.0200     1.1281     0.3408     0.1269 1.7260e+02    20.2431     -0.299     -0.433     6.5440 0.0000e+00
     -0.357     -0.199    10.0496     81.717     36.560  23.068369     7.0200     1.2006     0.3408     0.1269 2.5247e+02    20.2280     -0.350     -0.508     6.5441 0.0000e+00
     -0.411     -0.197    10.0491     81.608     35.759  22.563432     7.0200     1.2349     0.3408     0.1269 1.5999e+03    20.2881     -0.403     -0.585     6.5446 0.0000e+00
     -0.463     -0.191    10.0469     81.446     34.410  21.712252     7.0200     1.2349     0.3408     0.1269 1.6980e+03    20.3934     -0.455     -0.659     6.5452 0.0000e+00
     -0.512     -0.181    10.0411     81.204     32.143  20.281909     7.1100     1.2044     0.3408     0.2961 1.6633e+03    20.2130     -0.503     -0.729     6.5460 0.0000e+00
     -0.558     -0.168    10.0315     80.874     28.322  17.871186     7.1100     0.7238     0.3408     0.2961 7.3331e+02     9.3161     -0.547     -0.793     6.5468 0.0000e+00
     -0.599     -0.152    10.0180     80.466     23.146  14.605028     7.1100     0.7161     0.3408     0.2961 8.6480e+02     9.4063     -0.588     -0.853     6.5475 0.0000e+00
     -0.637     -0.134     9.9980     80.007     18.438  11.634688     7.1100     0.7276     0.3408     0.2961 1.7754e+03     9.3312     -0.625     -0.906     6.5480 0.0000e+00
     -0.670     -0.116     9.9683     79.542     15.813   9.978276     7.2900     0.7543     0.3408     0.6345 1.5607e+03     9.4063     -0.657     -0.953     6.5485 0.0000e+00
     -0.697     -0.098     9.9278     79.130     15.752   9.939718     7.2900    -0.5580     0.3408     0.6345 1.7327e+03     1.8011     -0.684     -0.992     6.5488 0.0000e+00
     -0.719     -0.080     9.8778     78.843     18.671  11.781626     7.2900    -0.5275     0.3408     0.6345 5.0331e+02     1.8011     -0.705     -1.022     6.5491 0.0000e+00
     -0.735     -0.064     9.8215     78.748     23.973  15.126750     7.2900    -0.5504     0.3408     0.6345 3.4149e+02     1.7560     -0.721     -1.046     6.5493 0.0000e+00
     -0.748     -0.051     9.7644     78.879     29.226  18.441735     3.4200    -0.5313     0.1278     0.3807 1.8482e+03     1.7109     -0.734     -1.064     6.5493 0.0000e+00
     -0.759     -0.039     9.7139     79.246     32.803  20.699262     3.4200     0.3194     0.1278     0.3807 1.6194e+03    -0.2881     -0.744     -1.079     6.5492 0.0000e+00
     -0.766     -0.031     9.6787     79.858     34.943  22.050092     3.4200     0.3003     0.1278     0.3807 1.9090e+03    -0.2881     -0.752     -1.090     6.5489 0.0000e+00
     -0.773     -0.024     9.6670     80.726     36.216  22.854446     3.4200     0.3461     0.1278     0.3807 1.6184e+03    -0.2430     -0.758     -1.098     6.5486 0.0000e+00
     -0.777     -0.019     9.6829     81.843     36.963  23.326819     3.4200     0.3232     0.1278     0.3807 2.3546e+02    -0.2581     -0.762     -1.105     6.5486 0.0000e+00
     -0.781     -0.014     9.7277     83.170     37.384  23.593176    -0.7200    -0.0468    -0.0426     0.0846 2.0127e+02    -0.8142     -0.766     -1.110     6.5490 0.0000e+00
     -0.784     -0.011     9.8025     84.660     37.585  23.720586    -0.7200    -0.0545    -0.0426     0.0846 1.5924e+02    -0.8442     -0.769     -1.114     6.5499 0.0000e+00
     -0.786     -0.009     9.9087     86.254     37.613  23.739068    -0.7200    -0.0545    -0.0426     0.0846 1.5625e+02    -0.7991     -0.771     -1.117     6.5511 0.0000e+00
     -0.788     -0.007    10.0454     87.876     37.483  23.657510    -0.7200    -0.0697    -0.0426     0.0846 1.6252e+02    -0.7691     -0.772     -1.120     6.5524 0.0000e+00
     -0.789     -0.005    10.2080     89.445     37.166  23.458120     0.0000    -0.1269    -0.1704     1.0998 1.6287e+02    -1.0847     -0.774     -1.122     6.5536 0.0000e+00
     -0.790     -0.004    10.3907     90.875     36.572  23.083769     0.0000    -0.1155    -0.1704     1.0998 1.7122e+02    -1.1899     -0.775     -1.124     6.5547 0.0000e+00
     -0.791     -0.003    10.5861     92.102     35.537  22.430672     0.0000    -0.1308    -0.1704     1.0998 2.0201e+02    -1.1899     -0.776     -1.125     6.5556 0.0000e+00
     -0.792     -0.003    10.7850     93.092     33.790  21.328629     0.0000    -0.1002    -0.1704     1.0998 1.2663e+03    -1.0847     -0.776     -1.126     6.5564 0.0000e+00
     -0.792     -0.002    10.9773     93.846     30.874  19.487719     0.0000    -0.1193    -1.0650     3.2571 9.3537e+02    -0.2881     -0.777     -1.127     6.5571 0.0000e+00
     -0.793     -0.002    11.1527     94.385     26.583  16.779232     0.0000    -0.1079    -1.0650     3.2571 9.6238e+02    -0.3783     -0.777     -1.127     6.5578 0.0000e+00
     -0.793     -0.001    11.3032     94.733     22.017  13.897751     0.0000    -0.1155    -1.0650     3.2571 6.1309e+02    -0.3933     -0.778     -1.128     6.5583 0.0000e+00
     -0.793     -0.001    11.4246     94.921     18.647  11.770564     0.0000    -0.1269    -1.0650     3.2571 2.3915e+03    -0.2581     -0.778     -1.128     6.5587 0.0000e+00
     -0.793     -0.001    11.5172     94.990     16.470  10.396285     0.0000     0.3079    -0.7242     0.4230 2.6377e+03     0.8993     -0.778     -1.129     6.5590 0.0000e+00
     -0.794     -0.001    11.5834     94.979     14.626   9.232393     0.0000     0.2889    -0.7242     0.4230 1.7270e+03     0.7640     -0.778     -1.129     6.5591 0.0000e+00
     -0.794     -0.001    11.6262     94.918     12.611   7.960599     0.0000     0.3156    -0.7242     0.4230 4.4885e+02     0.8391     -0.779     -1.129     6.5592 0.0000e+00
     -0.794     -0.001    11.6494     94.828     10.553   6.661080     0.0000     0.3346    -0.7242     0.4230 5.6548e+02     0.9143     -0.779     -1.130     6.5592 0.0000e+00
     -0.794     -0.000    11.6579     94.727      8.810   5.560870     0.0000     2.7074    -0.7242     0.4230 1.0943e+03    -2.8132     -0.779     -1.130     6.5592 0.0000e+00
     -0.794     -0.000    11.6565     94.630      7.541   4.760138     0.0000     2.7303     0.0000     1.1844 9.0537e+02    -2.7080     -0.779     -1.130     6.5594 0.0000e+00
     -0.794     -0.000    11.6491     94.554      6.775   4.276726     0.0000     2.7036     0.0000     1.1844 4.4739e+02    -2.7080     -0.779     -1.130     6.5594 0.0000e+00
     -0.794     -0.000    11.6382     94.525      6.518   4.114215     0.0000     2.6883     0.0000     1.1844 4.4303e+02    -2.6929     -0.779     -1.130     6.5593 0.0000e+00
     -0.794 -9.990e-29    11.6260 -9.990e-29 -9.990e-29 -9.990e-29     0.0000 -9.990e-29     0.0000     1.1844 6.0937e+02 -9.990e-29     -0.779     -1.130     6.5589 0.0000e+00
     -0.794 -9.990e-29    11.6143 -9.990e-29 -9.990e-29 -9.990e-29     0.0000 -9.990e-29    -0.8946    -0.5922 6.2330e+02 -9.990e-29     -0.779     -1.130     6.5582 0.0000e+00
     -0.794 -9.990e-29    11.6052 -9.990e-29 -9.990e-29 -9.990e-29     0.0000 -9.990e-29    -0.8946    -0.5922 6.2154e+02 -9.990e-29     -0.779     -1.130     6.5576 0.0000e+00
     -0.794 -9.990e-29    11.6017 -9.990e-29 -9.990e-29 -9.990e-29     0.0000 -9.990e-29    -0.8946    -0.5922 6.6226e+02 -9.990e-29     -0.779     -1.130     6.5574 0.0000e+00
