* Sea-Bird SBE19plus  Data File:
* FileName = C:\DATA\120618_fcr50_0002.hex
* Software version 2.6.3.104
* Temperature SN = 7809
* Conductivity SN = 7809
* System UpLoad Time = Dec 06 2018 16:36:44
* <ApplicationData>
* <Seaterm232>
* <SoftwareVersion>2.6.3.104</SoftwareVersion>
* <BuildDate>30-Jun-2017</BuildDate>
* </Seaterm232>
* </ApplicationData>
* <InstrumentState>
* <HardwareData DeviceType='SBE19plus' SerialNumber='01907809'>
*
*    <Manufacturer>Sea-Bird Electronics, Inc.</Manufacturer>
*
*    <FirmwareVersion>3.1.8</FirmwareVersion>
*
*    <FirmwareDate>Mar  9 2016 16:22:29</FirmwareDate>
*
*    <CommandSetVersion>1.4</CommandSetVersion>
*
*    <PCBAssembly PCBSerialNum='120721' AssemblyNum='41054J'/>
*
*    <PCBAssembly PCBSerialNum='120715' AssemblyNum='41967A'/>
*
*    <PCBAssembly PCBSerialNum='116699' AssemblyNum='41606'/>
*
*    <PCBAssembly PCBSerialNum='120719' AssemblyNum='41059D'/>
*
*    <MfgDate>28-Apr-2017</MfgDate>
*
*    <InternalSensors>
*
*       <Sensor id='Main Temperature'>
*
*          <type>temperature0</type>
*
*          <SerialNumber>01907809</SerialNumber>
*
*       </Sensor>
*
*       <Sensor id='Main Conductivity'>
*
*          <type>conductivity-0</type>
*
*          <SerialNumber>01907809</SerialNumber>
*
*       </Sensor>
*
*       <Sensor id='Main Pressure'>
*
*          <type>strain-0</type>
*
*          <SerialNumber>10586018</SerialNumber>
*
*       </Sensor>
*
*    </InternalSensors>
*
*    <ExternalSensors>
*
*       <Sensor id='volt 0'>
*
*          <type>pH</type>
*
*          <SerialNumber>27-0363</SerialNumber>
*
*       </Sensor>
*
*       <Sensor id='volt 1'>
*
*          <type>ORP</type>
*
*          <SerialNumber>27-0363</SerialNumber>
*
*       </Sensor>
*
*       <Sensor id='volt 2'>
*
*          <type>OXY</type>
*
*          <SerialNumber>43-0434</SerialNumber>
*
*       </Sensor>
*
*       <Sensor id='volt 3'>
*
*          <type>PAR</type>
*
*          <SerialNumber>1122</SerialNumber>
*
*       </Sensor>
*
*       <Sensor id='volt 4'>
*
*          <type>ECO AFL/FL</type>
*
*          <SerialNumber>FLNTURT-2496</SerialNumber>
*
*       </Sensor>
*
*       <Sensor id='volt 5'>
*
*          <type>ECO-NTU</type>
*
*          <SerialNumber>FLNTURT-2496</SerialNumber>
*
*       </Sensor>
*
*       <Sensor id='serial'>
*
*          <type>not assigned</type>
*
*          <SerialNumber>not assigned</SerialNumber>
*
*       </Sensor>
*
*    </ExternalSensors>
*
* </HardwareData>
* <StatusData DeviceType='SBE19plus' SerialNumber='01907809'>
*
*    <DateTime>2018-12-06T21:35:51</DateTime>
*
*    <LoggingState>not logging</LoggingState>
*
*    <EventSummary numEvents='0'/>
*
*    <Power>
*
*       <vMain>12.7</vMain>
*
*       <vLith>8.3</vLith>
*
*       <iMain>63.1</iMain>
*
*       <iPump>89.3</iPump>
*
*       <iExt01>14.6</iExt01>
*
*       <iExt2345>45.5</iExt2345>
*
*    </Power>
*
*    <MemorySummary>
*
*       <Bytes>35719</Bytes>
*
*       <Samples>1553</Samples>
*
*       <SamplesFree>2859235</SamplesFree>
*
*       <SampleLength>23</SampleLength>
*
*       <Profiles>2</Profiles>
*
*    </MemorySummary>
*
* </StatusData>
* <ConfigurationData DeviceType='SBE19plus' SerialNumber='01907809'>
*
*    <ProfileMode>
*
*       <ScansToAverage>1</ScansToAverage>
*
*       <MinimumCondFreq>5</MinimumCondFreq>
*
*       <PumpDelay>45</PumpDelay>
*
*       <AutoRun>no</AutoRun>
*
*       <IgnoreSwitch>no</IgnoreSwitch>
*
*    </ProfileMode>
*
*    <Battery>
*
*       <Type>alkaline</Type>
*
*       <CutOff>7.5</CutOff>
*
*    </Battery>
*
*    <DataChannels>
*
*       <ExtVolt0>yes</ExtVolt0>
*
*       <ExtVolt1>yes</ExtVolt1>
*
*       <ExtVolt2>yes</ExtVolt2>
*
*       <ExtVolt3>yes</ExtVolt3>
*
*       <ExtVolt4>yes</ExtVolt4>
*
*       <ExtVolt5>yes</ExtVolt5>
*
*       <SBE38>no</SBE38>
*
*       <WETLABS>no</WETLABS>
*
*       <OPTODE>no</OPTODE>
*
*       <SBE63>no</SBE63>
*
*       <SeaFET>no</SeaFET>
*
*       <GTD>no</GTD>
*
*    </DataChannels>
*
*    <EchoCharacters>yes</EchoCharacters>
*
*    <OutputExecutedTag>yes</OutputExecutedTag>
*
*    <OutputFormat>raw HEX</OutputFormat>
*
* </ConfigurationData>
* <CalibrationCoefficients DeviceType='SBE19plus' SerialNumber='01907809'>
*
*    <Calibration format='TEMP1' id='Main Temperature'>
*
*       <SerialNum>01907809</SerialNum>
*
*       <CalDate>09-Mar-18</CalDate>
*
*       <TA0>1.210932e-03</TA0>
*
*       <TA1>2.843566e-04</TA1>
*
*       <TA2>-1.945074e-06</TA2>
*
*       <TA3>2.128067e-07</TA3>
*
*       <TOFFSET>0.000000e+00</TOFFSET>
*
*    </Calibration>
*
*    <Calibration format='WBCOND0' id='Main Conductivity'>
*
*       <SerialNum>01907809</SerialNum>
*
*       <CalDate>09-Mar-18</CalDate>
*
*       <G>-1.006721e+00</G>
*
*       <H>1.269065e-01</H>
*
*       <I>-1.405844e-04</I>
*
*       <J>2.478371e-05</J>
*
*       <CPCOR>-9.570000e-08</CPCOR>
*
*       <CTCOR>3.250000e-06</CTCOR>
*
*       <CSLOPE>1.000000e+00</CSLOPE>
*
*    </Calibration>
*
*    <Calibration format='STRAIN0' id='Main Pressure'>
*
*       <SerialNum>10586018</SerialNum>
*
*       <CalDate>07-Mar-18</CalDate>
*
*       <PA0>-4.081764e-02</PA0>
*
*       <PA1>4.851884e-04</PA1>
*
*       <PA2>-3.511682e-12</PA2>
*
*       <PTCA0>5.252134e+05</PTCA0>
*
*       <PTCA1>1.795324e+00</PTCA1>
*
*       <PTCA2>-2.843535e-01</PTCA2>
*
*       <PTCB0>2.516687e+01</PTCB0>
*
*       <PTCB1>3.750000e-04</PTCB1>
*
*       <PTCB2>0.000000e+00</PTCB2>
*
*       <PTEMPA0>-5.378069e+01</PTEMPA0>
*
*       <PTEMPA1>5.366207e+01</PTEMPA1>
*
*       <PTEMPA2>4.872143e-02</PTEMPA2>
*
*       <POFFSET>5.000000e-01</POFFSET>
*
*       <PRANGE>1.600000e+02</PRANGE>
*
*    </Calibration>
*
*    <Calibration format='VOLT0' id='Volt 0'>
*
*       <OFFSET>-4.920000e-02</OFFSET>
*
*       <SLOPE>1.248122e+00</SLOPE>
*
*    </Calibration>
*
*    <Calibration format='VOLT0' id='Volt 1'>
*
*       <OFFSET>-4.784000e-02</OFFSET>
*
*       <SLOPE>1.248871e+00</SLOPE>
*
*    </Calibration>
*
*    <Calibration format='VOLT0' id='Volt 2'>
*
*       <OFFSET>-4.864632e-02</OFFSET>
*
*       <SLOPE>1.248714e+00</SLOPE>
*
*    </Calibration>
*
*    <Calibration format='VOLT0' id='Volt 3'>
*
*       <OFFSET>-4.743790e-02</OFFSET>
*
*       <SLOPE>1.248571e+00</SLOPE>
*
*    </Calibration>
*
*    <Calibration format='VOLT0' id='Volt 4'>
*
*       <OFFSET>-4.671263e-02</OFFSET>
*
*       <SLOPE>1.248951e+00</SLOPE>
*
*    </Calibration>
*
*    <Calibration format='VOLT0' id='Volt 5'>
*
*       <OFFSET>-4.871053e-02</OFFSET>
*
*       <SLOPE>1.249136e+00</SLOPE>
*
*    </Calibration>
*
*    <Calibration format='FREQ0' id='external frequency channel'>
*
*       <EXTFREQSF>1.000014e+00</EXTFREQSF>
*
*    </Calibration>
*
* </CalibrationCoefficients>
* <EventCounters DeviceType='SBE19plus' SerialNumber='01907809'>
*
*    <EventSummary numEvents='0'/>
*
* </EventCounters></InstrumentState>
* <Headers>
*
* cast   2 06 Dec 2018 17:48:53 samples 819 to 1553, avg = 1, stop = mag switch
*
# nquan = 17
# nvalues = 611                         
# units = specified
# name 0 = depFM: Depth [fresh water, m]
# name 1 = tv290C: Temperature [ITS-90, deg C]
# name 2 = sbeox0Mg/L: Oxygen, SBE 43 [mg/l]
# name 3 = sbeox0PS: Oxygen, SBE 43 [% saturation]
# name 4 = c0uS/cm: Conductivity [uS/cm]
# name 5 = specc: Specific Conductance [uS/cm]
# name 6 = ph: pH
# name 7 = orp: Oxidation Reduction Potential [mV]
# name 8 = flECO-AFL: Fluorescence, WET Labs ECO-AFL/FL [mg/m^3]
# name 9 = turbWETntu0: Turbidity, WET Labs ECO [NTU]
# name 10 = sal00: Salinity, Practical [PSU]
# name 11 = dz/dtM: Descent Rate [m/s]
# name 12 = prdM: Pressure, Strain Gauge [db]
# name 13 = prdE: Pressure, Strain Gauge [psi]
# name 14 = scan: Scan Count
# name 15 = par/sat/log: PAR/Logarithmic, Satlantic
# name 16 = flag:  0.000e+00
# span 0 =     -0.658,     10.614       
# span 1 =     4.4198,     5.5996       
# span 2 =     8.7695,    12.9069       
# span 3 =     68.491,    100.072       
# span 4 =   0.509082,  18.071287       
# span 5 =      0.833,     30.246       
# span 6 =      6.006,      8.238       
# span 7 =   157.9285,  1240.2295       
# span 8 =    -0.6267,     2.4990       
# span 9 =    -3.5141,   243.8956       
# span 10 =     0.0024,     0.0135      
# span 11 =     -0.258,      0.256      
# span 12 =     -0.645,     10.408      
# span 13 =     -0.936,     15.095      
# span 14 =          1,        611      
# span 15 = 1.4452e-01, 1.5256e+03      
# span 16 = 0.0000e+00, 0.0000e+00      
# interval = seconds: 0.25
# start_time = Dec 06 2018 17:48:53 [Instrument's time stamp, header]
# bad_flag = -9.990e-29
# <Sensors count="9" >
#   <sensor Channel="1" >
#     <!-- Count, Temperature -->
#     <TemperatureSensor SensorID="58" >
#       <SerialNumber>7809</SerialNumber>
#       <CalibrationDate>09-Mar-18</CalibrationDate>
#       <A0>1.21093245e-003</A0>
#       <A1>2.84356597e-004</A1>
#       <A2>-1.94507398e-006</A2>
#       <A3>2.12806664e-007</A3>
#       <Slope>1.00000000</Slope>
#       <Offset>0.0000</Offset>
#     </TemperatureSensor>
#   </sensor>
#   <sensor Channel="2" >
#     <!-- Frequency 0, Conductivity -->
#     <ConductivitySensor SensorID="3" >
#       <SerialNumber>7809</SerialNumber>
#       <CalibrationDate>09-Mar-18</CalibrationDate>
#       <UseG_J>1</UseG_J>
#       <!-- Cell const and series R are applicable only for wide range sensors. -->
#       <SeriesR>0.0000</SeriesR>
#       <CellConst>2000.0000</CellConst>
#       <ConductivityType>0</ConductivityType>
#       <Coefficients equation="0" >
#         <A>0.00000000e+000</A>
#         <B>0.00000000e+000</B>
#         <C>0.00000000e+000</C>
#         <D>0.00000000e+000</D>
#         <M>0.0</M>
#         <CPcor>-9.57000000e-008</CPcor>
#       </Coefficients>
#       <Coefficients equation="1" >
#         <G>-1.00672082e+000</G>
#         <H>1.26906489e-001</H>
#         <I>-1.40584351e-004</I>
#         <J>2.47837121e-005</J>
#         <CPcor>-9.57000000e-008</CPcor>
#         <CTcor>3.2500e-006</CTcor>
#         <!-- WBOTC not applicable unless ConductivityType = 1. -->
#         <WBOTC>0.00000000e+000</WBOTC>
#       </Coefficients>
#       <Slope>1.00000000</Slope>
#       <Offset>0.00000</Offset>
#     </ConductivitySensor>
#   </sensor>
#   <sensor Channel="3" >
#     <!-- Count, Pressure, Strain Gauge -->
#     <PressureSensor SensorID="46" >
#       <SerialNumber>7809</SerialNumber>
#       <CalibrationDate>07-Mar-18</CalibrationDate>
#       <PA0>-4.08176359e-002</PA0>
#       <PA1>4.85188419e-004</PA1>
#       <PA2>-3.51168169e-012</PA2>
#       <PTEMPA0>-5.37806900e+001</PTEMPA0>
#       <PTEMPA1>5.36620721e+001</PTEMPA1>
#       <PTEMPA2>4.87214332e-002</PTEMPA2>
#       <PTCA0>5.25213435e+005</PTCA0>
#       <PTCA1>1.79532409e+000</PTCA1>
#       <PTCA2>-2.84353509e-001</PTCA2>
#       <PTCB0>2.51668750e+001</PTCB0>
#       <PTCB1>3.75000000e-004</PTCB1>
#       <PTCB2>0.00000000e+000</PTCB2>
#       <Offset>0.000000</Offset>
#     </PressureSensor>
#   </sensor>
#   <sensor Channel="4" >
#     <!-- A/D voltage 0, pH -->
#     <pH_Sensor SensorID="43" >
#       <SerialNumber>0363</SerialNumber>
#       <CalibrationDate>16-Mar-18</CalibrationDate>
#       <Slope>4.6194</Slope>
#       <Offset>2.5947</Offset>
#     </pH_Sensor>
#   </sensor>
#   <sensor Channel="5" >
#     <!-- A/D voltage 1, Oxidation Reduction Potential -->
#     <OxidationReductionPotentialSensor SensorID="41" >
#       <SerialNumber>0363</SerialNumber>
#       <CalibrationDate>16-Mar-18</CalibrationDate>
#       <B>2.499480</B>
#       <M>-0.496195</M>
#       <Offset>0.0</Offset>
#     </OxidationReductionPotentialSensor>
#   </sensor>
#   <sensor Channel="6" >
#     <!-- A/D voltage 2, Oxygen, SBE 43 -->
#     <OxygenSensor SensorID="38" >
#       <SerialNumber>0434</SerialNumber>
#       <CalibrationDate>13-Mar-18</CalibrationDate>
#       <Use2007Equation>1</Use2007Equation>
#       <CalibrationCoefficients equation="0" >
#         <!-- Coefficients for Owens-Millard equation. -->
#         <Boc>0.0000</Boc>
#         <Soc>0.0000e+000</Soc>
#         <offset>0.0000</offset>
#         <Pcor>0.00e+000</Pcor>
#         <Tcor>0.0000</Tcor>
#         <Tau>0.0</Tau>
#       </CalibrationCoefficients>
#       <CalibrationCoefficients equation="1" >
#         <!-- Coefficients for Sea-Bird equation - SBE calibration in 2007 and later. -->
#         <Soc>4.5718e-001</Soc>
#         <offset>-0.6113</offset>
#         <A>-4.0649e-003</A>
#         <B> 2.0945e-004</B>
#         <C>-3.3182e-006</C>
#         <D0> 2.5826e+000</D0>
#         <D1> 1.92634e-004</D1>
#         <D2>-4.64803e-002</D2>
#         <E> 3.6000e-002</E>
#         <Tau20> 1.2200</Tau20>
#         <H1>-3.3000e-002</H1>
#         <H2> 5.0000e+003</H2>
#         <H3> 1.4500e+003</H3>
#       </CalibrationCoefficients>
#     </OxygenSensor>
#   </sensor>
#   <sensor Channel="7" >
#     <!-- A/D voltage 3, PAR/Logarithmic, Satlantic -->
#     <PARLog_SatlanticSensor SensorID="76" >
#       <SerialNumber>1122</SerialNumber>
#       <CalibrationDate>22-Jun-2017</CalibrationDate>
#       <a0>9.6090e-001</a0>
#       <a1>8.0780e-001</a1>
#       <Im>1.3589e+000</Im>
#       <Multiplier>1.0000e+000</Multiplier>
#     </PARLog_SatlanticSensor>
#   </sensor>
#   <sensor Channel="8" >
#     <!-- A/D voltage 4, Fluorometer, WET Labs ECO-AFL/FL -->
#     <FluoroWetlabECO_AFL_FL_Sensor SensorID="20" >
#       <SerialNumber>FLNTURT-2496</SerialNumber>
#       <CalibrationDate>25-Jan-2017</CalibrationDate>
#       <ScaleFactor>5.30000000e+001</ScaleFactor>
#       <!-- Dark output -->
#       <Vblank>0.0560</Vblank>
#     </FluoroWetlabECO_AFL_FL_Sensor>
#   </sensor>
#   <sensor Channel="9" >
#     <!-- A/D voltage 5, Turbidity Meter, WET Labs, ECO-NTU -->
#     <TurbidityMeter SensorID="67" >
#       <SerialNumber>FLNTURT-2496</SerialNumber>
#       <CalibrationDate>25-Jan-2017</CalibrationDate>
#       <ScaleFactor>176.000000</ScaleFactor>
#       <!-- Dark output -->
#       <DarkVoltage>0.072000</DarkVoltage>
#     </TurbidityMeter>
#   </sensor>
# </Sensors>
# datcnv_date = Dec 06 2018 16:38:09, 7.26.7.114 [datcnv_vars = 16]
# datcnv_in = C:\DATA\120618_bvr50.hex C:\DATA\SBE19plusV2_7809.xmlcon
# datcnv_skipover = 0
# datcnv_ox_hysteresis_correction = yes
# datcnv_ox_tau_correction = yes
# filter_date = Dec 06 2018 16:39:23, 7.26.7.114
# filter_in = C:\DATA\120618_bvr50.cnv
# filter_low_pass_tc_A = 0.030
# filter_low_pass_tc_B = 0.150
# filter_low_pass_A_vars = tv290C c0uS/cm par/sat/log
# filter_low_pass_B_vars = prdM prdE
# alignctd_date = Dec 06 2018 16:39:44, 7.26.7.114
# alignctd_in = C:\DATA\120618_bvr50.cnv
# alignctd_adv = tv290C 0.500, sbeox0Mg/L 3.000, sbeox0PS 3.000                                                                                                                                                                      
# file_type = ascii
*END*
     -0.658     5.5730    12.0522     95.825   0.509813      0.833      6.257   501.9374    -0.2143    -0.1169     0.0024      0.000     -0.645     -0.936          1 2.8063e+02 0.0000e+00
     -0.658     5.5737    12.0505     95.817   0.509082      0.833      6.238   540.3246    -0.2385    -0.1303     0.0024     -0.000     -0.645     -0.936          2 3.1922e+02 0.0000e+00
     -0.658     5.5748    12.0537     95.847   0.569490      0.925      6.297   693.4572    -0.2305    -0.1169     0.0024     -0.000     -0.645     -0.936          3 4.3266e+02 0.0000e+00
     -0.658     5.5762    12.0480     95.805   0.612286      1.016      6.368   851.5491    -0.2021    -0.3452     0.0024      0.000     -0.645     -0.935          4 2.5186e+02 0.0000e+00
     -0.657     5.5776    12.0408     95.749   0.574257      0.924      6.313   857.4548    -0.2264    -0.2243     0.0024      0.000     -0.645     -0.935          5 1.7075e+02 0.0000e+00
     -0.658     5.5795    12.0560     95.872   0.557599      0.924      6.222   773.0710    -0.2466    -0.2914     0.0024      0.000     -0.645     -0.935          6 1.8733e+02 0.0000e+00
     -0.657     5.5825    12.0592     95.896   0.573798      0.924      6.100   633.7563    -0.2385    -0.1974     0.0024      0.000     -0.645     -0.935          7 1.1848e+02 0.0000e+00
     -0.657     5.5854    12.0778     95.848   0.554096      0.924      6.089   655.7135    -0.3558    -0.4929     0.0024      0.000     -0.644     -0.934          8 1.1119e+02 0.0000e+00
     -0.657     5.5879    12.1538     95.906   0.522902      0.833      6.106   503.6031    -0.3801    -0.5197     0.0024      0.001     -0.644     -0.934          9 1.0396e+02 0.0000e+00
     -0.657     5.5902    12.2272     95.988   0.553403      0.924      6.116   636.9742    -0.3841    -0.5734     0.0024      0.001     -0.644     -0.934         10 1.1448e+02 0.0000e+00
     -0.657     5.5927    12.2679     95.949   0.575355      0.924      6.106   632.5070    -0.3477    -0.4660     0.0024      0.000     -0.645     -0.935         11 1.2786e+02 0.0000e+00
     -0.657     5.5950    12.3108     96.026   0.554800      0.924      6.065   578.0304    -0.3315    -0.5197     0.0024      0.000     -0.645     -0.935         12 1.3984e+02 0.0000e+00
     -0.657     5.5970    12.3317     95.986   0.578983      0.924      6.015   476.2323    -0.2183    -0.8017     0.0024      0.000     -0.645     -0.935         13 1.5738e+02 0.0000e+00
     -0.657     5.5981    12.3436     95.932   0.604476      1.015      6.006   495.4638    -0.2021    -0.6271     0.0025      0.000     -0.644     -0.934         14 2.0080e+02 0.0000e+00
     -0.657     5.5991    12.3605     95.968   0.582291      0.924      6.036   574.5476    -0.2385    -0.6809     0.0024 -7.020e-08     -0.644     -0.934         15 2.2712e+02 0.0000e+00
     -0.657     5.5993    12.3689     95.969   0.606592      1.015      6.073   599.4576    -0.2305    -0.7211     0.0025     -0.000     -0.644     -0.934         16 2.5985e+02 0.0000e+00
     -0.657     5.5996    12.3858     96.058   0.692666      1.106      6.102   666.2378    -0.6267    -3.4873     0.0025     -0.000     -0.641     -0.929         17 2.8478e+02 0.0000e+00
     -0.645     5.5128    12.3997     96.144   0.652822      1.106      6.108   637.2013    -0.5944    -3.5141     0.0025      0.003     -0.627     -0.909         18 3.7767e+02 0.0000e+00
     -0.617     5.2989    12.4468     96.499   0.774610      1.197      6.439  1240.2295    -0.5903    -3.4739     0.0025      0.013     -0.596     -0.864         19 3.8444e+02 0.0000e+00
     -0.561     5.0939    12.4951     96.867   6.582021     10.344      6.901  1240.2295    -0.5984    -3.4470     0.0057      0.034     -0.543     -0.788         20 5.7997e+02 0.0000e+00
     -0.482     4.9519    12.5607     97.367  15.490689     26.223      7.061   213.3894     0.6025     0.7559     0.0121      0.070     -0.477     -0.692         21 5.3351e+02 0.0000e+00
     -0.418     4.8456    12.6207     97.836  18.065741     29.739      7.411   195.5965     0.5742     0.7425     0.0135      0.112     -0.416     -0.603         22 4.8665e+02 0.0000e+00
     -0.373     4.7655    12.6959     98.427  17.746106     29.789      7.650   190.0315     0.6187     0.8097     0.0134      0.150     -0.366     -0.531         23 7.6794e+02 0.0000e+00
     -0.330     4.7060    12.7631     98.943  17.844217     29.800      7.830   181.8921     0.6308     0.8097     0.0134      0.180     -0.316     -0.459         24 5.1841e+02 0.0000e+00
     -0.265     4.6679    12.8214     99.390  17.647336     29.693      7.969   168.6800     0.9826     2.1256     0.0133      0.206     -0.253     -0.367         25 9.1696e+02 0.0000e+00
     -0.178     4.6420    12.8812     99.860  17.635540     29.658      8.066   158.2314     0.9867     2.2330     0.0132      0.229     -0.175     -0.254         26 1.0858e+03 0.0000e+00
     -0.093     4.6252    12.9069    100.072  17.562578     29.602      8.142   157.9285     0.9948     2.3539     0.0132      0.247     -0.097     -0.140         27 9.2078e+02 0.0000e+00
     -0.026     4.6162    12.8915     99.956  17.619613     29.722      8.199   161.1842     1.0029     2.3136     0.0132      0.255     -0.031     -0.044         28 1.1694e+03 0.0000e+00
      0.026     4.6125    12.8361     99.528  17.623833     29.739      8.230   173.0714     0.9786     2.2867     0.0132      0.256      0.022      0.032         29 9.3175e+02 0.0000e+00
      0.069     4.6096    12.7293     98.697  17.675863     29.842      8.238   175.3428     0.5297     2.4210     0.0132      0.256      0.061      0.089         30 8.5545e+02 0.0000e+00
      0.092     4.6065    12.5933     97.640  17.732666     29.940      8.225   175.4186     0.5661     2.5016     0.0133      0.248      0.085      0.124         31 5.0139e+02 0.0000e+00
      0.101     4.6078    12.3995     96.141  17.790210     30.038      8.216   166.9385     0.5702     2.4613     0.0133      0.223      0.097      0.141         32 6.0464e+02 0.0000e+00
      0.104     4.6108    12.1807     94.449  17.782051     30.041      8.202   176.5543     0.5581     2.5150     0.0133      0.181      0.100      0.146         33 9.1801e+02 0.0000e+00
      0.103     4.6091    11.9551     92.718  17.683554     29.851      8.164   177.4250     0.4610     2.2196     0.0132      0.133      0.099      0.143         34 4.7407e+02 0.0000e+00
      0.096     4.6069    11.7433     91.081  17.616454     29.753      8.130   178.2200     0.5055     2.2464     0.0132      0.087      0.092      0.133         35 3.1441e+02 0.0000e+00
      0.082     4.6098    11.5698     89.729  17.569223     29.661      8.098   177.4628     0.4893     2.2062     0.0132      0.047      0.083      0.120         36 9.8003e+02 0.0000e+00
      0.076     4.6142    11.4154     88.522  17.564534     29.663      8.083   177.6900     0.4853     2.1927     0.0132      0.016      0.079      0.115         37 1.5256e+03 0.0000e+00
      0.086     4.6160    11.2850     87.505  17.681557     29.849      8.065   178.7121     0.4853     2.2196     0.0132     -0.002      0.083      0.120         38 9.4531e+02 0.0000e+00
      0.092     4.6162    11.1867     86.742  17.779189     30.033      8.046   179.9236     0.4893     2.2599     0.0133     -0.008      0.082      0.118         39 4.0195e+02 0.0000e+00
      0.069     4.6150    11.1096     86.149  17.798632     30.031      8.031   180.5671     0.4812     2.2464     0.0133     -0.014      0.064      0.092         40 5.4280e+02 0.0000e+00
      0.030     4.6147    11.0311     85.539  17.775894     30.031      8.015   180.6807     0.4812     2.1659     0.0133     -0.026      0.039      0.056         41 8.2139e+02 0.0000e+00
      0.023     4.6153    10.9667     85.037  17.748219     29.938      8.002   182.0057     0.4772     2.4076     0.0133     -0.034      0.028      0.040         42 6.8460e+02 0.0000e+00
      0.032     4.6180    10.9313     84.757  17.773806     30.033      7.988   182.4600     0.4772     2.5016     0.0133     -0.035      0.029      0.041         43 6.8539e+02 0.0000e+00
      0.031     4.6249    10.8806     84.358  17.803318     30.032      7.965   182.1571     0.4893     2.4479     0.0133     -0.034      0.028      0.040         44 6.6152e+02 0.0000e+00
      0.022     4.6276    10.8624     84.213  17.830025     30.124      7.947   182.7250     0.5095     2.4344     0.0134     -0.036      0.021      0.031         45 6.4696e+02 0.0000e+00
      0.014     4.6248    10.8339     83.994  17.799836     30.022      7.923   183.0657     0.5702     2.3941     0.0133     -0.038      0.013      0.020         46 7.4031e+02 0.0000e+00
      0.004     4.6211    10.8185     83.879  17.781619     30.019      7.910   184.0879     0.5338     2.4479     0.0133     -0.034      0.007      0.010         47 5.3414e+02 0.0000e+00
      0.002     4.6180    10.8125     83.830  17.734162     29.928      7.896   183.9364     0.5540     2.5419     0.0133     -0.024      0.007      0.010         48 4.5917e+02 0.0000e+00
      0.014     4.6179    10.7972     83.705  17.681095     29.837      7.885   184.9964     0.5500     2.4210     0.0132     -0.013      0.015      0.021         49 4.0760e+02 0.0000e+00
      0.027     4.6194    10.7795     83.565  17.729126     29.935      7.871   185.4886     0.5419     2.4344     0.0133     -0.007      0.025      0.036         50 8.2580e+02 0.0000e+00
      0.034     4.6193    10.7639     83.440  17.733658     29.935      7.857   185.8672     0.5500     2.4479     0.0133     -0.002      0.031      0.045         51 1.4581e+03 0.0000e+00
      0.033     4.6178    10.7437     83.281  17.734724     29.933      7.839   186.6622     0.5419     2.5150     0.0133      0.005      0.033      0.047         52 8.0254e+02 0.0000e+00
      0.032     4.6158    10.7333     83.199  17.727799     29.934      7.822   187.0407     0.5419     2.5016     0.0133      0.012      0.032      0.046         53 3.2030e+02 0.0000e+00
      0.031     4.6133    10.7244     83.128  17.683008     29.841      7.799   187.4950     0.5540     2.4210     0.0132      0.015      0.031      0.045         54 6.2337e+02 0.0000e+00
      0.031     4.6112    10.7095     83.013  17.671932     29.843      7.778   187.4193     0.5621     2.1390     0.0132      0.015      0.031      0.045         55 5.6012e+02 0.0000e+00
      0.031     4.6120    10.6902     82.870  17.682317     29.845      7.758   188.6307     0.5500     2.1927     0.0132      0.011      0.029      0.043         56 6.4067e+02 0.0000e+00
      0.027     4.6141    10.6772     82.781  17.670084     29.847      7.745   188.9715     0.5621     2.2599     0.0132      0.004      0.026      0.038         57 8.2882e+02 0.0000e+00
      0.021     4.6128    10.6622     82.670  17.627889     29.752      7.737   188.2522     0.5581     2.2330     0.0132     -0.003      0.024      0.035         58 6.5726e+02 0.0000e+00
      0.025     4.6102    10.6498     82.568  17.675562     29.844      7.726   188.6307     0.5540     2.2733     0.0132     -0.005      0.027      0.040         59 7.5356e+02 0.0000e+00
      0.038     4.6086    10.6479     82.546  17.670023     29.846      7.719   189.2365     0.5702     2.2196     0.0132     -0.002      0.036      0.053         60 9.9399e+02 0.0000e+00
      0.049     4.6069    10.6554     82.599  17.634781     29.754      7.706   182.4600     0.5621     2.1659     0.0132      0.004      0.046      0.066         61 5.0713e+02 0.0000e+00
      0.054     4.6060    10.6888     82.855  17.660153     29.850      7.683   182.6493     0.5419     2.1524     0.0132      0.010      0.052      0.074         62 5.6851e+02 0.0000e+00
      0.055     4.6051    10.6568     82.606  17.638450     29.757      7.665   190.7507     0.5419     2.1927     0.0132      0.015      0.054      0.077         63 7.0040e+02 0.0000e+00
      0.055     4.6042    10.6938     82.894  17.602526     29.758      7.650   183.3686     0.5702     2.1256     0.0132      0.017      0.056      0.081         64 4.7253e+02 0.0000e+00
      0.060     4.6045    10.7038     82.974  17.586327     29.665      7.638   183.2550     0.5338     2.2733     0.0132      0.020      0.061      0.089         65 8.3521e+02 0.0000e+00
      0.073     4.6076    10.7021     82.963  17.599342     29.760      7.629   183.0279     0.5661     2.2196     0.0132      0.023      0.070      0.102         66 9.0162e+02 0.0000e+00
      0.082     4.6129    10.6924     82.889  17.586329     29.665      7.623   184.0122     0.5581     2.4747     0.0132      0.023      0.077      0.112         67 6.6378e+02 0.0000e+00
      0.082     4.6152    10.6748     82.755  17.602521     29.757      7.609   184.5422     0.5783     2.5016     0.0132      0.021      0.079      0.115         68 6.4579e+02 0.0000e+00
      0.078     4.6129    10.6538     82.593  17.638456     29.751      7.595   185.3372     0.5378     2.3404     0.0132      0.018      0.076      0.110         69 4.5547e+02 0.0000e+00
      0.072     4.6094    10.6316     82.421  17.660139     29.843      7.578   185.9429     0.5581     2.5419     0.0132      0.014      0.071      0.103         70 3.0968e+02 0.0000e+00
      0.068     4.6069    10.6237     82.361  17.634803     29.751      7.568   185.8672     0.5581     2.4747     0.0132      0.010      0.068      0.098         71 3.7859e+02 0.0000e+00
      0.069     4.6054    10.5944     82.136  17.610721     29.755      7.557   186.3972     0.5459     2.5419     0.0132      0.005      0.068      0.098         72 4.5544e+02 0.0000e+00
      0.070     4.6049    10.5886     82.092  17.630844     29.757      7.547   187.0029     0.5621     2.4344     0.0132     -0.001      0.069      0.100         73 3.2280e+02 0.0000e+00
      0.073     4.6057    10.5819     82.040  17.609761     29.759      7.541   187.7600     0.5217     2.3673     0.0132     -0.005      0.071      0.102         74 3.0375e+02 0.0000e+00
      0.073     4.6070    10.5647     81.907  17.577691     29.665      7.532   188.7822     0.5338     2.5150     0.0132     -0.005      0.071      0.103         75 3.8400e+02 0.0000e+00
      0.071     4.6078    10.5462     81.765  17.611488     29.759      7.523   188.9336     0.5500     2.1927     0.0132     -0.004      0.071      0.102         76 3.5950e+02 0.0000e+00
      0.072     4.6086    10.5370     81.700  17.626969     29.757      7.513   189.4257     0.5742     2.3673     0.0132     -0.001      0.071      0.102         77 2.5409e+02 0.0000e+00
      0.072     4.6094    10.5190     81.570  17.617691     29.757      7.504   190.3722     0.5500     2.2464     0.0132      0.002      0.071      0.102         78 3.5732e+02 0.0000e+00
      0.072     4.6098    10.4993     81.426  17.623032     29.756      7.496   190.8265     0.5581     2.1927     0.0132      0.002      0.071      0.102         79 5.4100e+02 0.0000e+00
      0.073     4.6102    10.4740     81.242  17.620321     29.755      7.490   191.1293     0.5095     2.4747     0.0132      0.001      0.072      0.104         80 3.2863e+02 0.0000e+00
      0.075     4.6105    10.4539     81.098  17.621065     29.754      7.481   191.8865     0.5742     2.4479     0.0132      0.001      0.074      0.108         81 3.4468e+02 0.0000e+00
      0.079     4.6114    10.4330     80.940  17.622107     29.754      7.476   192.9465     0.5419     2.5016     0.0132      0.002      0.077      0.112         82 4.3048e+02 0.0000e+00
      0.080     4.6121    10.4103     80.762  17.619024     29.754      7.467   192.7572     0.5459     2.3807     0.0132      0.004      0.078      0.113         83 3.8267e+02 0.0000e+00
      0.079     4.6123    10.3701     80.451  17.624902     29.753      7.459   192.9086     0.5621     2.3002     0.0132      0.004      0.078      0.113         84 2.9086e+02 0.0000e+00
      0.080     4.6124    10.3264     80.117  17.614792     29.752      7.453   193.2872     0.5419     2.2464     0.0132      0.005      0.080      0.116         85 2.6877e+02 0.0000e+00
      0.085     4.6129    10.2859     79.805  17.572340     29.658      7.447   194.0822     0.5419     2.1793     0.0132      0.006      0.084      0.122         86 3.5333e+02 0.0000e+00
      0.091     4.6159    10.2415     79.462  17.618468     29.752      7.441   194.3472     0.5459     2.1927     0.0132      0.008      0.089      0.130         87 3.3576e+02 0.0000e+00
      0.097     4.6204    10.1866     79.035  17.616652     29.751      7.428   194.6500     0.5581     2.2196     0.0132      0.010      0.094      0.136         88 2.6736e+02 0.0000e+00
      0.099     4.6247    10.1482     78.739  17.574598     29.654      7.423   195.5586     0.5419     2.2196     0.0132      0.012      0.098      0.141         89 3.4036e+02 0.0000e+00
      0.103     4.6302    10.1031     78.391  17.611536     29.744      7.413   196.2022     0.5581     2.1927     0.0132      0.013      0.101      0.146         90 3.4767e+02 0.0000e+00
      0.106     4.6358    10.0656     78.101  17.629951     29.740      7.407   196.4293     0.5500     2.0719     0.0132      0.015      0.102      0.149         91 4.7424e+02 0.0000e+00
      0.105     4.6378    10.0219     77.761  17.670214     29.828      7.399   196.8836     0.5419     2.2196     0.0132      0.015      0.102      0.149         92 5.6009e+02 0.0000e+00
      0.102     4.6372     9.9705     77.365  17.679960     29.822      7.391   197.0350     0.5783     2.4881     0.0132      0.012      0.100      0.145         93 5.2120e+02 0.0000e+00
      0.098     4.6377     9.9339     77.087  17.677087     29.821      7.383   197.2243     0.5661     2.4344     0.0132      0.007      0.098      0.142         94 5.6486e+02 0.0000e+00
      0.099     4.6394     9.8994     76.826  17.733055     29.915      7.379   197.3379     0.5297     2.4076     0.0133      0.003      0.099      0.143         95 3.9778e+02 0.0000e+00
      0.106     4.6408     9.8565     76.498  17.728843     29.915      7.373   198.3222     0.5540     2.3539     0.0133      0.002      0.103      0.150         96 3.3481e+02 0.0000e+00
      0.111     4.6415     9.8138     76.171  17.682330     29.819      7.367   199.0793     0.5540     2.2867     0.0132      0.002      0.106      0.155         97 4.4133e+02 0.0000e+00
      0.108     4.6412     9.7869     75.967  17.672406     29.818      7.359   199.1172     0.5702     2.2464     0.0132      0.002      0.105      0.153         98 4.6539e+02 0.0000e+00
      0.103     4.6416     9.7373     75.587  17.681926     29.817      7.346   199.6851     0.5176     2.2196     0.0132      0.001      0.102      0.148         99 5.0688e+02 0.0000e+00
      0.100     4.6431     9.7094     75.375  17.729747     29.911      7.335   199.9501     0.5419     2.1659     0.0133      0.001      0.099      0.144        100 5.5746e+02 0.0000e+00
      0.100     4.6435     9.6755     75.117  17.731426     29.911      7.324   200.7072     0.5378     2.2062     0.0133      0.001      0.097      0.141        101 5.9322e+02 0.0000e+00
      0.097     4.6432     9.6446     74.880  17.679836     29.815      7.315   201.0101     0.5500     2.1793     0.0132     -0.001      0.095      0.137        102 6.6088e+02 0.0000e+00
      0.092     4.6444     9.6129     74.637  17.734683     29.909      7.307   200.8586     0.5338     2.2733     0.0133     -0.006      0.091      0.133        103 5.0538e+02 0.0000e+00
      0.091     4.6474     9.5790     74.377  17.781705     30.004      7.298   201.4643     0.5419     2.2330     0.0133     -0.009      0.090      0.131        104 4.3301e+02 0.0000e+00
      0.093     4.6507     9.5395     74.071  17.739852     29.908      7.294   201.6915     0.5419     2.3136     0.0133     -0.010      0.091      0.133        105 4.3627e+02 0.0000e+00
      0.095     4.6532     9.5202     73.924  17.727501     29.905      7.290   202.6001     0.5581     2.2330     0.0133     -0.007      0.092      0.134        106 4.7673e+02 0.0000e+00
      0.095     4.6555     9.4975     73.752  17.737807     29.902      7.284   203.0165     0.5540     2.1927     0.0133     -0.004      0.092      0.134        107 7.3634e+02 0.0000e+00
      0.093     4.6580     9.4585     73.451  17.727026     29.899      7.275   203.0922     0.5581     2.1524     0.0133     -0.003      0.091      0.132        108 5.6431e+02 0.0000e+00
      0.091     4.6605     9.4309     73.234  17.740919     29.897      7.270   203.5086     0.5378     2.1793     0.0133     -0.002      0.090      0.130        109 4.9394e+02 0.0000e+00
      0.091     4.6630     9.4128     73.090  17.779784     29.989      7.265   204.0008     0.5661     2.4613     0.0133     -0.001      0.090      0.130        110 8.8733e+02 0.0000e+00
      0.092     4.6652     9.3827     72.855  17.737924     29.892      7.256   203.9251     0.5581     2.4479     0.0133     -0.000      0.091      0.133        111 8.6730e+02 0.0000e+00
      0.096     4.6668     9.3545     72.639  17.733744     29.889      7.255   204.5308     0.5540     2.4479     0.0133      0.000      0.095      0.139        112 7.0482e+02 0.0000e+00
      0.104     4.6685     9.3382     72.521  17.725717     29.887      7.251   204.9094     0.5500     2.4210     0.0133      0.002      0.100      0.146        113 5.8414e+02 0.0000e+00
      0.108     4.6699     9.3139     72.343  17.688647     29.791      7.243   205.7422     0.6025     2.4210     0.0132      0.006      0.103      0.150        114 6.4317e+02 0.0000e+00
      0.104     4.6705     9.2933     72.193  17.720611     29.884      7.233   205.8558     0.6308     2.4344     0.0133      0.007      0.100      0.145        115 5.2848e+02 0.0000e+00
      0.095     4.6719     9.2740     72.050  17.745206     29.882      7.226   205.9694     0.6228     2.3941     0.0133      0.006      0.095      0.138        116 3.5203e+02 0.0000e+00
      0.093     4.6740     9.2497     71.869  17.776573     29.976      7.216   206.4236     0.6389     2.4344     0.0133      0.003      0.092      0.133        117 2.8354e+02 0.0000e+00
      0.094     4.6750     9.2200     71.640  17.740841     29.880      7.204   206.6129     0.6308     2.5284     0.0133      0.001      0.091      0.132        118 2.5673e+02 0.0000e+00
      0.091     4.6739     9.1916     71.427  17.730406     29.878      7.198   206.9915     0.5904     2.5150     0.0133     -0.003      0.090      0.130        119 4.6293e+02 0.0000e+00
      0.089     4.6722     9.1616     71.227  17.789559     29.971      7.193   208.1651     0.5944     2.3807     0.0133     -0.007      0.088      0.128        120 2.4176e+02 0.0000e+00
      0.089     4.6716     9.1351     71.060  17.785760     29.973      7.180   208.3922     0.6147     2.4747     0.0133     -0.009      0.088      0.128        121 3.9991e+02 0.0000e+00
      0.091     4.6730     9.0985     70.804  17.735134     29.880      7.157   208.4679     0.6106     2.2196     0.0133     -0.008      0.089      0.129        122 6.4367e+02 0.0000e+00
      0.092     4.6771     9.0842     70.708  17.734029     29.881      7.129   208.5437     0.6025     2.2733     0.0133     -0.005      0.091      0.133        123 7.7168e+02 0.0000e+00
      0.099     4.6830     9.0644     70.559  17.787136     29.974      7.110   208.7708     0.6106     2.1122     0.0133      0.001      0.096      0.140        124 1.0096e+03 0.0000e+00
      0.102     4.6882     9.0542     70.478  17.787576     29.969      7.109   208.5058     0.5985     2.2196     0.0133      0.004      0.100      0.146        125 5.4370e+02 0.0000e+00
      0.106     4.6922     9.0552     70.484  17.733480     29.869      7.104   209.2629     0.5783     2.9044     0.0133      0.007      0.105      0.152        126 2.5510e+02 0.0000e+00
      0.113     4.6961     9.0309     70.294  17.735923     29.864      7.101   209.5279     0.5459     2.8507     0.0133      0.011      0.109      0.158        127 3.8047e+02 0.0000e+00
      0.115     4.6970     9.0147     70.172  17.784535     29.954      7.091   209.9065     0.5419     2.8104     0.0133      0.014      0.110      0.160        128 4.4674e+02 0.0000e+00
      0.110     4.7018     9.0041     70.094  17.791515     29.950      7.090   210.6637     0.5540     2.9313     0.0133      0.013      0.109      0.158        129 3.6559e+02 0.0000e+00
      0.110     4.7195     8.9897     69.987  17.786501     29.949      7.086   211.7994     0.5419     2.8507     0.0133      0.011      0.108      0.158        130 2.7347e+02 0.0000e+00
      0.112     4.7406     8.9772     69.897  17.790773     29.945      7.082   210.8908     0.6066     2.2062     0.0133      0.009      0.109      0.158        131 3.7904e+02 0.0000e+00
      0.111     4.7560     8.9646     69.808  17.786198     29.926      7.074   210.4365     0.5823     2.1927     0.0133      0.005      0.109      0.158        132 5.5874e+02 0.0000e+00
      0.110     4.7644     8.9502     69.705  17.792192     29.905      7.067   211.0422     0.6308     2.2464     0.0133      0.002      0.110      0.159        133 4.2641e+02 0.0000e+00
      0.114     4.7668     8.9391     69.624  17.783310     29.890      7.061   211.2315     0.6025     2.2196     0.0133      0.001      0.113      0.165        134 3.1355e+02 0.0000e+00
      0.123     4.7665     8.9342     69.590  17.797249     29.881      7.059   211.1179     0.6228     2.3807     0.0133      0.002      0.120      0.176        135 3.6592e+02 0.0000e+00
      0.133     4.7652     8.9236     69.512  17.774843     29.879      7.051   211.6479     0.6389     2.3941     0.0133      0.008      0.129      0.187        136 2.7092e+02 0.0000e+00
      0.138     4.7650     8.9128     69.431  17.751925     29.785      7.049   212.3672     0.6308     2.5553     0.0133      0.013      0.135      0.195        137 3.6787e+02 0.0000e+00
      0.141     4.7671     8.9033     69.360  17.825769     29.974      7.042   212.4429     0.6147     2.3673     0.0134      0.017      0.136      0.197        138 3.8559e+02 0.0000e+00
      0.136     4.7698     8.8910     69.266  17.801480     29.881      7.035   212.5944     0.6268     2.1793     0.0133      0.017      0.134      0.195        139 3.6723e+02 0.0000e+00
      0.134     4.7724     8.8848     69.219  17.782152     29.878      7.022   213.1244     0.6025     2.2196     0.0133      0.016      0.132      0.191        140 4.4004e+02 0.0000e+00
      0.132     4.7765     8.8798     69.181  17.790553     29.876      7.016   213.4272     0.5985     2.2196     0.0133      0.012      0.129      0.188        141 4.9197e+02 0.0000e+00
      0.129     4.7816     8.8807     69.187  17.791024     29.873      7.014   213.4272     0.6147     2.2599     0.0133      0.006      0.126      0.183        142 5.9862e+02 0.0000e+00
      0.126     4.7861     8.8662     69.070  17.840833     29.963      7.010   213.4651     0.6389     2.2330     0.0134     -0.001      0.124      0.180        143 4.2457e+02 0.0000e+00
      0.125     4.7895     8.8549     68.969  17.847100     29.958      7.004   213.9951     0.6106     2.3270     0.0134     -0.006      0.124      0.180        144 3.0312e+02 0.0000e+00
      0.128     4.7922     8.8506     68.925  17.842491     29.953      7.005   214.0330     0.6106     2.2733     0.0134     -0.008      0.125      0.182        145 4.8840e+02 0.0000e+00
      0.129     4.7945     8.8391     68.832  17.846568     29.950      7.008   214.8658     0.6106     2.2733     0.0134     -0.006      0.126      0.183        146 3.0596e+02 0.0000e+00
      0.129     4.7963     8.8320     68.769  17.842025     29.947      6.999   214.8658     0.5419     2.2733     0.0134     -0.004      0.126      0.183        147 3.0374e+02 0.0000e+00
      0.129     4.7977     8.8197     68.661  17.848144     29.945      6.996   214.6765     0.5459     2.1927     0.0134     -0.002      0.127      0.184        148 5.4075e+02 0.0000e+00
      0.130     4.7988     8.8190     68.691  17.838953     29.943      6.998   215.1308     0.5459     2.2330     0.0134      0.000      0.127      0.184        149 4.0810e+02 0.0000e+00
      0.130     4.7999     8.8021     68.653  17.794196     29.848      6.992   215.5094     0.5338     2.1659     0.0134      0.002      0.127      0.185        150 5.0117e+02 0.0000e+00
      0.131     4.8002     8.7844     68.578  17.785309     29.847      6.995   215.5851     0.5338     2.2733     0.0134      0.002      0.130      0.189        151 5.7770e+02 0.0000e+00
      0.139     4.7996     8.7695     68.491  17.790746     29.846      6.999   216.0015     0.5257     2.2062     0.0134      0.004      0.137      0.198        152 4.3612e+02 0.0000e+00
      0.149     4.7972     8.7854     68.625  17.787431     29.845      6.999   215.8501     0.5338     2.2464     0.0134      0.008      0.146      0.211        153 3.7959e+02 0.0000e+00
      0.156     4.7903     8.8102     68.825  17.789436     29.846      7.000   215.7744     0.5621     2.3136     0.0134      0.012      0.157      0.227        154 2.7475e+02 0.0000e+00
      0.176     4.7843     8.8545     69.172  17.788251     29.848      6.999   216.4558     0.5581     2.2599     0.0134      0.021      0.173      0.250        155 2.5955e+02 0.0000e+00
      0.197     4.7820     8.9220     69.698  17.788905     29.855      6.988   216.8722     0.6228     2.2733     0.0134      0.031      0.190      0.275        156 2.3596e+02 0.0000e+00
      0.207     4.7776     9.0011     70.295  17.788622     29.861      6.985   222.5508     0.5985     2.2733     0.0133      0.040      0.203      0.295        157 3.4464e+02 0.0000e+00
      0.221     4.7714     9.0950     70.995  17.788604     29.864      6.981   217.0615     0.5864     2.2867     0.0133      0.048      0.212      0.307        158 5.6325e+02 0.0000e+00
      0.222     4.7924     9.1918     71.729  17.788929     29.868      6.971   217.8565     0.6308     2.2599     0.0133      0.050      0.206      0.299        159 5.1268e+02 0.0000e+00
      0.189     4.8427     9.2849     72.432  17.847486     29.968      6.958   217.8187     0.6713     2.1524     0.0134      0.038      0.173      0.251        160 4.6983e+02 0.0000e+00
      0.119     4.8794     9.3456     72.882  17.834264     29.948      6.952   218.1973     0.6591     2.1927     0.0134      0.006      0.111      0.162        161 3.8931e+02 0.0000e+00
      0.034     4.8947     9.4105     73.365  17.805378     29.802      6.952   218.4244     0.6875     2.3404     0.0134     -0.043      0.035      0.051        162 3.2526e+02 0.0000e+00
     -0.046     4.9014     9.4513     73.659  17.824157     29.860      6.954   232.3559     0.6632     2.2062     0.0134     -0.104     -0.038     -0.055        163 4.0683e+02 0.0000e+00
     -0.103     4.9046     9.4729     73.816  17.751616     29.657      6.952   220.8094     0.6106     2.2062     0.0133     -0.159     -0.100     -0.146        164 3.2804e+02 0.0000e+00
     -0.160     4.9056     9.4807     73.905  17.777114     29.745      6.940   219.2951     0.6106     2.1390     0.0134     -0.205     -0.160     -0.232        165 3.7633e+02 0.0000e+00
     -0.231     4.9041     9.4784     73.928  17.792423     29.741      6.931   220.2037     0.6106     2.1927     0.0134     -0.242     -0.218     -0.317        166 6.9527e+02 0.0000e+00
     -0.277     4.8928     9.4728     73.916  17.732565     29.647      6.926   234.4380     0.6308     2.2196     0.0133     -0.258     -0.260     -0.378        167 7.5813e+02 0.0000e+00
     -0.287     4.8751     9.4796     73.954  17.733075     29.648      6.925   235.4223     0.6228     2.1927     0.0133     -0.244     -0.279     -0.406        168 5.4066e+02 0.0000e+00
     -0.293     4.8630     9.4726     73.839  17.732521     29.659      6.921   235.9902     0.5500     2.4881     0.0133     -0.209     -0.290     -0.421        169 3.6413e+02 0.0000e+00
     -0.311     4.8510     9.5001     74.000  17.733254     29.678      6.923   237.1637     0.5621     2.5419     0.0133     -0.170     -0.305     -0.441        170 3.0791e+02 0.0000e+00
     -0.327     4.8382     9.5563     74.402  17.732166     29.689      6.929   236.1794     0.5540     2.5150     0.0133     -0.135     -0.320     -0.465        171 3.5073e+02 0.0000e+00
     -0.344     4.8263     9.6605     75.089  17.733878     29.701      6.925   223.1566     0.5702     2.4344     0.0133     -0.107     -0.335     -0.486        172 4.0307e+02 0.0000e+00
     -0.354     4.8132     9.8168     76.179  17.731126     29.714      6.912   237.3909     0.5338     2.2062     0.0133     -0.081     -0.345     -0.501        173 3.6296e+02 0.0000e+00
     -0.355     4.8083     9.9900     77.450  17.735594     29.726      6.903   236.7852     0.5459     2.2464     0.0133     -0.057     -0.352     -0.511        174 3.6317e+02 0.0000e+00
     -0.371     4.8218    10.2209     79.201  17.787588     29.832      6.905   236.1794     0.5581     2.2599     0.0134     -0.048     -0.362     -0.525        175 3.9748e+02 0.0000e+00
     -0.381     4.8443    10.4680     81.097  17.784957     29.838      6.908   235.3087     0.5419     2.2733     0.0134     -0.047     -0.371     -0.538        176 4.1498e+02 0.0000e+00
     -0.382     4.8594    10.7527     83.293  17.798135     29.824      6.918   234.7030     0.7158    96.4032     0.0134     -0.044     -0.374     -0.542        177 4.7091e+02 0.0000e+00
     -0.380     4.8525    11.0170     85.338  17.771186     29.802      6.931   235.0059     0.7441    96.4166     0.0134     -0.035     -0.371     -0.538        178 4.7410e+02 0.0000e+00
     -0.374     4.8201    11.2496     87.142  17.818492     29.785      6.939   235.1952     0.7319    96.3629     0.0134     -0.024     -0.361     -0.524        179 4.3915e+02 0.0000e+00
     -0.352     4.7947    11.4355     88.585  18.005965     30.214      6.945   235.1194     0.7400    96.3897     0.0135     -0.010     -0.343     -0.498        180 3.9383e+02 0.0000e+00
     -0.325     4.7721    11.6001     89.861  18.071287     30.246      6.937   235.4223     1.1767   243.8822     0.0135      0.008     -0.318     -0.461        181 3.7439e+02 0.0000e+00
     -0.296     4.7119    11.7068     90.684  17.915006     30.134      6.917   233.8702     1.1646   243.7211     0.0135      0.029     -0.293     -0.425        182 3.6443e+02 0.0000e+00
     -0.276     4.6479    11.7385     90.928  17.518889     29.355      6.909   234.0973     1.1686   243.7211     0.0131      0.051     -0.274     -0.398        183 3.4174e+02 0.0000e+00
     -0.268     4.6118    11.7551     91.057  17.408553     29.324      6.905   233.6430     1.1889   243.8956     0.0131      0.065     -0.264     -0.383        184 3.3456e+02 0.0000e+00
     -0.264     4.5926    11.7265     90.835  17.489296     29.481      6.907   233.9080     0.5540     2.6493     0.0131      0.069     -0.259     -0.376        185 3.3598e+02 0.0000e+00
     -0.261     4.5836    11.6789     90.466  17.418420     29.423      6.910   233.5294     0.5621     2.6224     0.0131      0.067     -0.257     -0.373        186 3.3260e+02 0.0000e+00
     -0.261     4.5792    11.6253     90.048  17.437501     29.442      6.915   233.6430     0.5500     2.6359     0.0131      0.057     -0.257     -0.373        187 3.3214e+02 0.0000e+00
     -0.264     4.5782    11.5732     89.640  17.465555     29.545      6.911   233.7566     0.5500     2.5687     0.0131      0.041     -0.259     -0.376        188 3.3003e+02 0.0000e+00
     -0.267     4.5790    11.5072     89.124  17.413144     29.408      6.913   233.4916     0.5338     2.6493     0.0130      0.024     -0.261     -0.378        189 3.2996e+02 0.0000e+00
     -0.267     4.5806    11.4932     89.015  17.473095     29.550      6.914   233.7187     0.4853     2.3941     0.0131      0.010     -0.261     -0.378        190 3.2864e+02 0.0000e+00
     -0.265     4.5807    11.4709     88.842  17.479846     29.549      6.917   233.6430     0.4893     2.4613     0.0131      0.003     -0.260     -0.377        191 3.2659e+02 0.0000e+00
     -0.264     4.5795    11.4536     88.710  17.434374     29.453      6.919   233.5673     0.4893     2.4344     0.0131     -0.000     -0.259     -0.376        192 3.2721e+02 0.0000e+00
     -0.262     4.5788    11.4544     88.719  17.470417     29.548      6.919   233.8702     0.4974     2.3941     0.0131     -0.001     -0.257     -0.373        193 3.2743e+02 0.0000e+00
     -0.261     4.5786    11.4568     88.737  17.434991     29.455      6.919   233.6430     0.5621     2.2733     0.0131      0.000     -0.256     -0.370        194 3.3018e+02 0.0000e+00
     -0.258     4.5787    11.4552     88.723  17.419196     29.455      6.924   233.1509     0.5661     2.1927     0.0131      0.002     -0.253     -0.366        195 3.3366e+02 0.0000e+00
     -0.255     4.5784    11.4466     88.654  17.430808     29.455      6.925   233.5294     0.5540     2.2062     0.0131      0.005     -0.250     -0.361        196 3.3171e+02 0.0000e+00
     -0.251     4.5773    11.4396     88.597  17.450172     29.502      6.929   233.1509     0.5581     2.1659     0.0131      0.008     -0.245     -0.355        197 3.3809e+02 0.0000e+00
     -0.243     4.5755    11.4173     88.425  17.424732     29.456      6.932   233.0373     0.5459     2.4479     0.0131      0.011     -0.238     -0.345        198 3.3647e+02 0.0000e+00
     -0.234     4.5738    11.4023     88.310  17.432835     29.457      6.932   232.6587     0.5702     2.3941     0.0131      0.014     -0.230     -0.334        199 3.4138e+02 0.0000e+00
     -0.228     4.5732    11.3770     88.113  17.410453     29.458      6.932   232.6209     0.5540     2.4747     0.0131      0.018     -0.225     -0.327        200 3.3354e+02 0.0000e+00
     -0.227     4.5731    11.3527     87.927  17.393319     29.366      6.937   232.1666     0.5742     2.4344     0.0130      0.019     -0.223     -0.323        201 3.4748e+02 0.0000e+00
     -0.226     4.5739    11.3184     87.661  17.454160     29.555      6.941   232.2044     0.5297     2.3941     0.0131      0.020     -0.220     -0.319        202 4.2981e+02 0.0000e+00
     -0.220     4.5752    11.3148     87.634  17.394006     29.367      6.944   232.0909     0.5378     2.3404     0.0130      0.019     -0.212     -0.307        203 4.5055e+02 0.0000e+00
     -0.201     4.5750    11.3034     87.547  17.408913     29.460      6.945   231.9394     0.5581     2.4747     0.0131      0.023     -0.196     -0.285        204 3.4494e+02 0.0000e+00
     -0.179     4.5741    11.3068     87.572  17.435606     29.459      6.942   232.4694     0.5702     2.3807     0.0131      0.029     -0.179     -0.260        205 3.5486e+02 0.0000e+00
     -0.170     4.5730    11.3117     87.610  17.390421     29.412      6.936   232.6966     0.5500     2.3136     0.0130      0.034     -0.168     -0.243        206 4.0689e+02 0.0000e+00
     -0.162     4.5717    11.3034     87.545  17.376248     29.366      6.943   232.0151     0.5540     2.1390     0.0130      0.038     -0.159     -0.229        207 4.0324e+02 0.0000e+00
     -0.152     4.5719    11.3079     87.579  17.423610     29.461      6.948   225.8444     0.5459     2.1659     0.0131      0.043     -0.152     -0.219        208 7.6170e+02 0.0000e+00
     -0.149     4.5726    11.3089     87.585  17.420377     29.462      6.935   232.6587     0.5500     2.2062     0.0131      0.045     -0.154     -0.223        209 1.0855e+03 0.0000e+00
     -0.174     4.5725    11.3089     87.584  17.380271     29.368      6.932   232.5830     0.5419     2.1524     0.0130      0.035     -0.167     -0.241        210 1.0786e+03 0.0000e+00
     -0.184     4.5730    11.3049     87.552  17.414256     29.461      6.938   232.4694     0.5944     2.1927     0.0131      0.020     -0.173     -0.251        211 1.1214e+03 0.0000e+00
     -0.169     4.5733    11.3055     87.556  17.378084     29.367      6.939   226.6773     0.6308     2.3136     0.0130      0.008     -0.168     -0.242        212 1.0533e+03 0.0000e+00
     -0.160     4.5738    11.3095     87.588  17.366021     29.366      6.940   227.7373     0.6228     2.2867     0.0130      0.001     -0.162     -0.235        213 9.4426e+02 0.0000e+00
     -0.168     4.5741    11.3174     87.648  17.399636     29.413      6.933   228.3430     0.6349     2.2599     0.0130     -0.004     -0.166     -0.241        214 1.0099e+03 0.0000e+00
     -0.181     4.5738    11.3288     87.737  17.425150     29.460      6.932   228.1916     0.6025     2.2599     0.0131     -0.009     -0.172     -0.249        215 1.0745e+03 0.0000e+00
     -0.176     4.5736    11.3307     87.752  17.423167     29.460      6.933   228.4187     0.6147     2.0719     0.0131     -0.010     -0.167     -0.241        216 1.0815e+03 0.0000e+00
     -0.152     4.5732    11.3351     87.788  17.372469     29.366      6.934   228.6080     0.6349     2.3136     0.0130     -0.001     -0.149     -0.215        217 1.0744e+03 0.0000e+00
     -0.126     4.5726    11.3463     87.877  17.369711     29.366      6.936   229.1759     0.6389     2.3404     0.0130      0.017     -0.130     -0.187        218 1.0971e+03 0.0000e+00
     -0.118     4.5719    11.3433     87.856  17.367335     29.366      6.931   229.2516     0.6025     2.2196     0.0130      0.026     -0.122     -0.177        219 1.1157e+03 0.0000e+00
     -0.129     4.5715    11.3462     87.877  17.375428     29.367      6.928   228.8351     0.6228     2.3270     0.0130      0.026     -0.127     -0.183        220 1.1260e+03 0.0000e+00
     -0.138     4.5710    11.3430     87.850  17.418905     29.462      6.928   228.5323     0.6268     2.1659     0.0131      0.025     -0.133     -0.193        221 1.1008e+03 0.0000e+00
     -0.140     4.5708    11.3557     87.947  17.431760     29.463      6.933   228.6080     0.6147     2.2464     0.0131      0.024     -0.137     -0.198        222 1.0440e+03 0.0000e+00
     -0.139     4.5711    11.3428     87.847  17.448330     29.510      6.936   229.1759     0.6106     2.3404     0.0131      0.020     -0.137     -0.199        223 1.0496e+03 0.0000e+00
     -0.140     4.5710    11.3442     87.856  17.427916     29.463      6.937   229.0623     0.6228     2.4076     0.0131      0.009     -0.137     -0.200        224 1.0665e+03 0.0000e+00
     -0.141     4.5709    11.3467     87.873  17.427530     29.463      6.936   229.1759     0.6268     2.4747     0.0131     -0.003     -0.137     -0.200        225 1.0562e+03 0.0000e+00
     -0.140     4.5711    11.3536     87.927  17.419178     29.463      6.937   229.2137     0.6228     2.4076     0.0131     -0.010     -0.136     -0.198        226 1.0746e+03 0.0000e+00
     -0.137     4.5720    11.3528     87.921  17.379044     29.369      6.936   229.5544     0.6187     2.4747     0.0130     -0.008     -0.136     -0.197        227 1.0881e+03 0.0000e+00
     -0.139     4.5732    11.3554     87.942  17.418208     29.463      6.935   229.7816     0.5702     2.3807     0.0131     -0.002     -0.137     -0.198        228 1.0719e+03 0.0000e+00
     -0.141     4.5738    11.3503     87.901  17.429705     29.462      6.938   230.1601     0.5419     2.4881     0.0131     -0.000     -0.137     -0.200        229 1.0772e+03 0.0000e+00
     -0.141     4.5737    11.3539     87.927  17.424004     29.461      6.937   230.3116     0.5621     2.3941     0.0131     -0.000     -0.137     -0.200        230 1.0981e+03 0.0000e+00
     -0.138     4.5724    11.3505     87.897  17.454935     29.507      6.939   236.7852     0.5702     2.4076     0.0131      0.000     -0.135     -0.196        231 1.0908e+03 0.0000e+00
     -0.135     4.5717    11.3535     87.919  17.420844     29.460      6.940   230.5009     0.6308     2.4747     0.0131      0.001     -0.133     -0.192        232 1.0669e+03 0.0000e+00
     -0.134     4.5717    11.3448     87.852  17.377531     29.367      6.938   231.3337     0.6025     2.5150     0.0130      0.003     -0.132     -0.191        233 1.0730e+03 0.0000e+00
     -0.136     4.5707    11.3309     87.746  17.419938     29.462      6.942   237.8073     0.6187     2.4210     0.0131      0.002     -0.134     -0.193        234 1.0701e+03 0.0000e+00
     -0.139     4.5700    11.3311     87.750  17.427336     29.462      6.942   237.8452     0.6106     2.4613     0.0131      0.001     -0.136     -0.197        235 1.0646e+03 0.0000e+00
     -0.140     4.5701    11.3271     87.719  17.368325     29.369      6.944   232.1666     0.5500     2.1793     0.0130      0.001     -0.137     -0.199        236 1.0629e+03 0.0000e+00
     -0.139     4.5702    11.3218     87.678  17.374845     29.370      6.943   238.1480     0.5419     2.2599     0.0130      0.001     -0.136     -0.198        237 1.0620e+03 0.0000e+00
     -0.139     4.5705    11.3112     87.597  17.419223     29.464      6.948   238.0345     0.5621     2.2464     0.0130     -0.001     -0.136     -0.196        238 1.0759e+03 0.0000e+00
     -0.137     4.5701    11.3041     87.543  17.431629     29.464      6.951   238.4509     0.5540     2.1927     0.0130     -0.002     -0.135     -0.195        239 1.0797e+03 0.0000e+00
     -0.135     4.5688    11.3084     87.574  17.389038     29.416      6.953   238.1102     0.5500     2.2464     0.0130     -0.001     -0.133     -0.192        240 1.0729e+03 0.0000e+00
     -0.132     4.5675    11.3186     87.650  17.383328     29.370      6.951   238.1480     0.5621     2.2062     0.0130      0.001     -0.130     -0.188        241 1.0747e+03 0.0000e+00
     -0.130     4.5670    11.3109     87.589  17.409103     29.465      6.951   238.5645     0.5702     2.2464     0.0130      0.003     -0.128     -0.185        242 1.0814e+03 0.0000e+00
     -0.128     4.5673    11.3081     87.570  17.386594     29.372      6.954   234.1352     0.5419     2.3002     0.0130      0.006     -0.125     -0.181        243 1.0777e+03 0.0000e+00
     -0.124     4.5680    11.3058     87.552  17.411341     29.467      6.956   233.7566     0.5581     2.1659     0.0130      0.008     -0.121     -0.175        244 1.0818e+03 0.0000e+00
     -0.118     4.5688    11.3144     87.619  17.437574     29.467      6.952   233.4537     0.5944     2.2196     0.0130      0.010     -0.116     -0.169        245 1.0962e+03 0.0000e+00
     -0.114     4.5690    11.3175     87.644  17.413213     29.466      6.953   233.7944     0.5419     2.2196     0.0130      0.012     -0.113     -0.164        246 1.1107e+03 0.0000e+00
     -0.113     4.5688    11.3171     87.640  17.382391     29.371      6.955   233.4916     0.5500     2.2599     0.0130      0.013     -0.112     -0.162        247 1.1114e+03 0.0000e+00
     -0.114     4.5694    11.3160     87.629  17.416665     29.465      6.956   233.8702     0.5661     2.1927     0.0130      0.012     -0.114     -0.164        248 1.0987e+03 0.0000e+00
     -0.120     4.5700    11.3302     87.738  17.400193     29.418      6.955   234.0216     0.6066     2.2599     0.0130      0.009     -0.119     -0.173        249 1.0934e+03 0.0000e+00
     -0.130     4.5691    11.3496     87.886  17.373258     29.370      6.954   233.7944     0.6268     2.1659     0.0130      0.003     -0.127     -0.184        250 1.0942e+03 0.0000e+00
     -0.137     4.5675    11.3561     87.936  17.420551     29.464      6.955   233.2644     0.6511     2.2464     0.0130     -0.004     -0.132     -0.192        251 1.0461e+03 0.0000e+00
     -0.136     4.5672    11.3633     87.992  17.430236     29.465      6.957   233.6430     0.6228     2.2196     0.0130     -0.010     -0.133     -0.192        252 1.0633e+03 0.0000e+00
     -0.131     4.5680    11.3772     88.101  17.420472     29.466      6.955   233.7944     0.5500     2.4747     0.0130     -0.012     -0.128     -0.185        253 1.0556e+03 0.0000e+00
     -0.121     4.5681    11.3979     88.261  17.373437     29.372      6.957   233.9459     0.5944     2.4747     0.0130     -0.009     -0.118     -0.171        254 1.1508e+03 0.0000e+00
     -0.107     4.5681    11.4062     88.324  17.370239     29.371      6.957   234.2487     0.5459     2.3404     0.0130     -0.002     -0.104     -0.151        255 1.0376e+03 0.0000e+00
     -0.090     4.5686    11.4282     88.492  17.365186     29.371      6.959   234.8544     0.5419     2.4344     0.0130      0.011     -0.089     -0.130        256 1.1818e+03 0.0000e+00
     -0.078     4.5681    11.4307     88.507  17.350093     29.324      6.957   234.5516     0.6349     2.3673     0.0130      0.024     -0.075     -0.110        257 1.4521e+03 0.0000e+00
     -0.063     4.5673    11.4402     88.569  17.418655     29.465      6.958   234.7787     0.6308     2.4076     0.0130      0.037     -0.061     -0.088        258 1.0789e+03 0.0000e+00
     -0.045     4.5665    11.4444     88.597  17.428025     29.466      6.958   234.7409     0.6430     2.4747     0.0130      0.047     -0.046     -0.066        259 7.5645e+02 0.0000e+00
     -0.032     4.5656    11.4594     88.716  17.427330     29.467      6.958   234.7787     0.6268     2.3673     0.0130      0.054     -0.031     -0.045        260 5.8785e+02 0.0000e+00
     -0.017     4.5657    11.4489     88.637  17.419521     29.467      6.956   234.9302     0.5297     2.4613     0.0130      0.057     -0.017     -0.024        261 7.3427e+02 0.0000e+00
     -0.003     4.5660    11.4511     88.655  17.378477     29.374      6.957   234.4759     0.5500     2.4479     0.0130      0.058     -0.003     -0.003        262 6.3049e+02 0.0000e+00
      0.012     4.5662    11.4530     88.671  17.359877     29.374      6.955   234.7787     0.5540     2.4210     0.0130      0.058      0.011      0.017        263 9.6350e+02 0.0000e+00
      0.025     4.5661    11.4383     88.557  17.383404     29.374      6.955   234.5894     0.5702     2.3002     0.0130      0.057      0.025      0.037        264 1.2249e+03 0.0000e+00
      0.040     4.5655    11.4520     88.660  17.408463     29.468      6.957   234.8544     0.6228     2.5016     0.0130      0.057      0.042      0.062        265 7.5323e+02 0.0000e+00
      0.067     4.5646    11.4322     88.505  17.417589     29.421      6.954   234.8544     0.6268     2.3807     0.0130      0.060      0.065      0.094        266 5.6072e+02 0.0000e+00
      0.090     4.5625    11.4387     88.554  17.460946     29.563      6.955   234.8923     0.6106     2.4747     0.0131      0.064      0.090      0.130        267 7.2151e+02 0.0000e+00
      0.118     4.5581    11.4419     88.580  17.384139     29.375      6.955   234.8544     0.6430     2.4076     0.0130      0.071      0.118      0.172        268 7.8874e+02 0.0000e+00
      0.155     4.5560    11.4437     88.594  17.365010     29.377      6.945   234.9680     0.6470     2.4479     0.0130      0.082      0.155      0.225        269 5.3956e+02 0.0000e+00
      0.202     4.5569    11.4347     88.526  17.425488     29.476      6.938   235.4223     0.6106     2.3807     0.0130      0.097      0.198      0.286        270 6.7776e+02 0.0000e+00
      0.247     4.5579    11.4172     88.390  17.427409     29.478      6.933   236.1794     0.6106     2.5150     0.0130      0.114      0.238      0.345        271 4.6886e+02 0.0000e+00
      0.279     4.5583    11.4066     88.303  17.421886     29.477      6.930   236.2173     0.6228     2.3673     0.0130      0.129      0.270      0.391        272 3.2257e+02 0.0000e+00
      0.299     4.5589    11.3954     88.213  17.373096     29.382      6.928   236.5580     0.6066     2.3673     0.0130      0.135      0.293      0.424        273 3.0453e+02 0.0000e+00
      0.318     4.5590    11.3924     88.188  17.399229     29.428      6.932   237.0502     0.6632     2.3941     0.0130      0.134      0.313      0.454        274 3.1967e+02 0.0000e+00
      0.342     4.5578    11.3818     88.105  17.418996     29.475      6.930   237.6937     0.6632     2.4747     0.0130      0.129      0.336      0.488        275 4.7968e+02 0.0000e+00
      0.370     4.5566    11.3797     88.086  17.378129     29.380      6.931   238.1480     0.6308     2.4344     0.0130      0.121      0.364      0.528        276 4.4229e+02 0.0000e+00
      0.402     4.5564    11.4054     88.282  17.420454     29.476      6.929   238.6023     0.6551     2.3404     0.0130      0.112      0.397      0.574        277 4.8375e+02 0.0000e+00
      0.442     4.5565    11.4239     88.418  17.425589     29.477      6.923   238.8673     0.6713     2.5016     0.0130      0.108      0.434      0.629        278 3.0971e+02 0.0000e+00
      0.484     4.5569    11.4380     88.526  17.371739     29.383      6.914   239.6245     0.6834     2.4613     0.0130      0.111      0.473      0.685        279 3.8409e+02 0.0000e+00
      0.518     4.5575    11.4581     88.684  17.368937     29.383      6.913   239.7002     0.6591     2.3941     0.0130      0.119      0.509      0.738        280 3.8380e+02 0.0000e+00
      0.554     4.5570    11.4427     88.563  17.369809     29.383      6.909   239.8516     0.6713     2.4479     0.0130      0.129      0.547      0.793        281 2.7380e+02 0.0000e+00
      0.603     4.5554    11.4555     88.655  17.370653     29.382      6.907   240.3816     0.6551     2.5419     0.0130      0.141      0.591      0.857        282 4.1746e+02 0.0000e+00
      0.650     4.5539    11.4528     88.615  17.397520     29.430      6.897   240.9116     0.6511     2.3136     0.0130      0.151      0.635      0.920        283 3.8865e+02 0.0000e+00
      0.688     4.5532    11.4602     88.655  17.366009     29.384      6.897   241.0252     0.6753     2.4479     0.0130      0.158      0.673      0.975        284 3.9125e+02 0.0000e+00
      0.720     4.5523    11.4554     88.602  17.320973     29.291      6.903   241.2902     0.6511     2.3807     0.0130      0.159      0.704      1.020        285 3.0101e+02 0.0000e+00
      0.744     4.5512    11.4535     88.578  17.364669     29.386      6.909   241.2902     0.6713     2.3404     0.0130      0.154      0.731      1.060        286 3.1357e+02 0.0000e+00
      0.775     4.5497    11.4563     88.599  17.370895     29.387      6.919   241.5930     0.7481     2.2867     0.0130      0.148      0.757      1.098        287 4.7366e+02 0.0000e+00
      0.797     4.5471    11.4595     88.622  17.372491     29.388      6.923   241.8959     0.7198     2.1927     0.0130      0.139      0.780      1.131        288 2.6067e+02 0.0000e+00
      0.814     4.5467    11.4739     88.728  17.421948     29.484      6.929   242.5016     0.6955     2.3002     0.0130      0.126      0.798      1.158        289 3.0624e+02 0.0000e+00
      0.830     4.5473    11.4702     88.703  17.368612     29.392      6.936   242.2366     0.7360     2.2196     0.0130      0.109      0.816      1.183        290 3.7477e+02 0.0000e+00
      0.851     4.5469    11.4725     88.723  17.290703     29.251      6.940   242.4259     0.7643     2.4210     0.0129      0.096      0.838      1.214        291 2.2519e+02 0.0000e+00
      0.881     4.5433    11.4710     88.711  17.311475     29.297      6.949   242.7666     0.7481     2.5150     0.0130      0.090      0.863      1.252        292 2.6590e+02 0.0000e+00
      0.907     4.5356    11.4784     88.771  17.313128     29.298      6.950   242.8045     0.7441     2.4479     0.0130      0.088      0.890      1.291        293 1.9466e+02 0.0000e+00
      0.934     4.5278    11.4791     88.775  17.318279     29.301      6.956   242.9180     0.7158     2.4210     0.0130      0.089      0.915      1.328        294 2.1499e+02 0.0000e+00
      0.960     4.5213    11.4775     88.762  17.364332     29.404      6.959   243.4859     0.7319     2.2733     0.0130      0.091      0.939      1.362        295 2.7736e+02 0.0000e+00
      0.978     4.5173    11.4772     88.759  17.374348     29.411      6.960   243.5995     0.7279     2.1927     0.0130      0.093      0.958      1.389        296 2.4472e+02 0.0000e+00
      0.992     4.5167    11.4642     88.657  17.365083     29.418      6.963   243.7509     0.7238     2.2196     0.0130      0.093      0.975      1.414        297 3.2334e+02 0.0000e+00
      1.013     4.5158    11.4616     88.635  17.375865     29.422      6.964   243.5238     0.7319     2.2464     0.0130      0.092      0.997      1.445        298 2.1876e+02 0.0000e+00
      1.043     4.5140    11.4565     88.592  17.360930     29.423      6.966   243.7888     0.8047     2.4613     0.0130      0.090      1.031      1.495        299 1.3993e+02 0.0000e+00
      1.098     4.5152    11.4500     88.538  17.294771     29.281      6.965   245.0759     0.7966     2.4747     0.0129      0.096      1.081      1.568        300 1.7449e+02 0.0000e+00
      1.165     4.5164    11.4450     88.497  17.310035     29.331      6.954   245.6438     0.7683     2.3941     0.0130      0.113      1.140      1.654        301 1.3170e+02 0.0000e+00
      1.225     4.5161    11.4412     88.467  17.312304     29.329      6.947   246.0223     0.7845     2.4210     0.0130      0.135      1.193      1.731        302 1.5008e+02 0.0000e+00
      1.260     4.5168    11.4448     88.495  17.321582     29.328      6.942   245.7195     0.8532     2.4210     0.0130      0.155      1.228      1.781        303 1.4022e+02 0.0000e+00
      1.271     4.5168    11.4431     88.480  17.357754     29.423      6.936   245.9088     0.8492     2.4210     0.0130      0.165      1.244      1.804        304 1.5610e+02 0.0000e+00
      1.277     4.5163    11.4478     88.514  17.326554     29.328      6.931   245.4166     0.8411     2.3404     0.0130      0.162      1.253      1.818        305 2.4053e+02 0.0000e+00
      1.287     4.5160    11.4495     88.523  17.360410     29.423      6.933   245.7573     0.8371     2.4210     0.0130      0.146      1.264      1.833        306 1.8517e+02 0.0000e+00
      1.303     4.5155    11.4534     88.549  17.374887     29.423      6.938   245.9845     0.8371     2.3673     0.0130      0.123      1.281      1.857        307 1.4344e+02 0.0000e+00
      1.326     4.5148    11.4586     88.584  17.338170     29.376      6.939   245.5302     0.9948     2.3941     0.0130      0.096      1.306      1.894        308 2.0087e+02 0.0000e+00
      1.368     4.5133    11.4500     88.513  17.317204     29.329      6.945   246.2495     1.0109     2.4613     0.0130      0.079      1.343      1.949        309 1.5933e+02 0.0000e+00
      1.416     4.5115    11.4479     88.497  17.312080     29.330      6.947   246.2495     0.9826     2.4881     0.0130      0.080      1.386      2.010        310 1.5389e+02 0.0000e+00
      1.456     4.5105    11.4472     88.494  17.314914     29.331      6.947   246.9688     0.9948     2.5016     0.0130      0.094      1.423      2.064        311 1.8918e+02 0.0000e+00
      1.480     4.5102    11.4459     88.478  17.313677     29.333      6.946   246.5523     0.9341     2.3673     0.0130      0.111      1.451      2.104        312 1.6801e+02 0.0000e+00
      1.504     4.5101    11.4341     88.387  17.313619     29.334      6.946   246.4388     0.9301     2.3941     0.0130      0.123      1.478      2.142        313 1.3226e+02 0.0000e+00
      1.536     4.5095    11.4328     88.382  17.314986     29.335      6.948   246.7795     0.8815     2.4344     0.0130      0.130      1.508      2.187        314 1.2562e+02 0.0000e+00
      1.573     4.5082    11.4350     88.401  17.311977     29.335      6.948   246.8930     0.9139     2.3941     0.0130      0.134      1.540      2.234        315 1.2862e+02 0.0000e+00
      1.604     4.5064    11.4314     88.376  17.317366     29.335      6.949   247.0823     1.2455     2.3807     0.0130      0.132      1.569      2.276        316 1.4855e+02 0.0000e+00
      1.624     4.5047    11.4398     88.442  17.337915     29.384      6.947   247.2338     1.2414     2.4479     0.0130      0.123      1.592      2.309        317 1.4026e+02 0.0000e+00
      1.642     4.5028    11.4369     88.421  17.375303     29.433      6.949   247.3095     1.2455     2.4344     0.0130      0.113      1.614      2.340        318 1.1908e+02 0.0000e+00
      1.669     4.5006    11.4324     88.382  17.359735     29.435      6.955   247.3095     1.2293     2.3673     0.0130      0.108      1.640      2.379        319 1.3458e+02 0.0000e+00
      1.704     4.5009    11.4387     88.422  17.327656     29.342      6.958   248.1802     1.5649     2.3673     0.0130      0.108      1.675      2.429        320 1.1177e+02 0.0000e+00
      1.750     4.5017    11.4492     88.501  17.355959     29.439      6.955   248.1045     1.5649     2.3404     0.0130      0.113      1.715      2.487        321 1.0926e+02 0.0000e+00
      1.791     4.4993    11.4522     88.532  17.324513     29.344      6.955   248.2938     1.5568     2.3941     0.0130      0.118      1.753      2.543        322 1.1593e+02 0.0000e+00
      1.821     4.4991    11.4490     88.513  17.248260     29.248      6.953   248.2938     1.5649     2.4344     0.0129      0.122      1.785      2.590        323 1.1490e+02 0.0000e+00
      1.850     4.5013    11.4525     88.546  17.332324     29.345      6.955   248.3695     1.7873     2.5150     0.0130      0.128      1.815      2.632        324 1.2449e+02 0.0000e+00
      1.880     4.5023    11.4620     88.621  17.427327     29.582      6.960   248.6723     1.7428     2.4747     0.0131      0.133      1.845      2.675        325 9.8853e+01 0.0000e+00
      1.912     4.5032    11.4657     88.648  17.396726     29.438      6.957   248.9373     1.7711     2.3807     0.0130      0.136      1.873      2.716        326 9.4680e+01 0.0000e+00
      1.937     4.5042    11.4604     88.606  17.400039     29.532      6.960   249.0509     1.7631     2.4881     0.0130      0.132      1.897      2.751        327 9.9712e+01 0.0000e+00
      1.952     4.5046    11.4556     88.572  17.334306     29.341      6.959   249.2402     1.7186     2.3807     0.0130      0.121      1.915      2.777        328 9.9976e+01 0.0000e+00
      1.968     4.5029    11.4414     88.464  17.300732     29.340      6.961   248.8995     1.6256     2.3136     0.0130      0.108      1.932      2.802        329 1.0891e+02 0.0000e+00
      1.988     4.4991    11.4363     88.424  17.323289     29.340      6.964   249.1645     1.6175     2.5016     0.0130      0.097      1.954      2.834        330 9.8982e+01 0.0000e+00
      2.022     4.4985    11.4215     88.308  17.306235     29.342      6.962   249.2023     1.6094     2.4210     0.0130      0.093      1.985      2.880        331 9.6354e+01 0.0000e+00
      2.063     4.5012    11.4109     88.226  17.321958     29.346      6.955   249.7323     1.6256     2.3941     0.0130      0.095      2.024      2.935        332 1.1756e+02 0.0000e+00
      2.104     4.5040    11.4030     88.165  17.362988     29.441      6.952   249.9973     1.6094     2.3404     0.0130      0.102      2.064      2.994        333 9.8948e+01 0.0000e+00
      2.147     4.5063    11.4254     88.339  17.403337     29.485      6.947   250.0731     1.6620     2.4479     0.0130      0.112      2.106      3.055        334 7.4622e+01 0.0000e+00
      2.193     4.5070    11.4310     88.378  17.360643     29.435      6.946   250.6409     1.6337     2.3673     0.0130      0.128      2.148      3.116        335 8.8848e+01 0.0000e+00
      2.233     4.5063    11.4183     88.275  17.327222     29.338      6.943   250.6031     1.6377     2.4747     0.0130      0.144      2.187      3.172        336 7.1172e+01 0.0000e+00
      2.265     4.5061    11.4542     88.549  17.356031     29.432      6.942   250.3002     1.7469     2.5284     0.0130      0.154      2.220      3.219        337 7.1700e+01 0.0000e+00
      2.293     4.5073    11.4550     88.555  17.324791     29.338      6.945   250.6409     1.7590     2.3673     0.0130      0.156      2.248      3.260        338 9.4689e+01 0.0000e+00
      2.317     4.5083    11.4594     88.590  17.306833     29.339      6.948   250.3381     1.7671     2.3807     0.0130      0.149      2.274      3.298        339 6.6472e+01 0.0000e+00
      2.347     4.5080    11.4392     88.434  17.319112     29.337      6.954   250.5273     1.7671     2.5150     0.0130      0.140      2.302      3.339        340 6.4874e+01 0.0000e+00
      2.378     4.5073    11.4339     88.394  17.309510     29.336      6.953   250.6409     1.9046     2.3941     0.0130      0.131      2.332      3.383        341 7.5256e+01 0.0000e+00
      2.408     4.5071    11.4218     88.302  17.378048     29.431      6.953   251.3602     1.8925     2.3270     0.0130      0.123      2.363      3.428        342 6.5269e+01 0.0000e+00
      2.444     4.5076    11.4207     88.294  17.381982     29.479      6.954   250.7923     1.8601     2.3673     0.0130      0.118      2.397      3.477        343 6.6653e+01 0.0000e+00
      2.482     4.5076    11.4221     88.302  17.274982     29.243      6.951   251.2466     1.8965     2.4210     0.0129      0.119      2.433      3.530        344 5.9908e+01 0.0000e+00
      2.519     4.5058    11.4166     88.240  17.303777     29.337      6.950   251.3223     1.9086     2.4747     0.0130      0.124      2.467      3.578        345 6.0215e+01 0.0000e+00
      2.545     4.5035    11.4229     88.263  17.375781     29.432      6.951   251.5873     1.8682     2.4076     0.0130      0.127      2.495      3.618        346 6.1579e+01 0.0000e+00
      2.569     4.5021    11.4346     88.333  17.363173     29.434      6.952   252.0038     1.8925     2.4747     0.0130      0.128      2.518      3.652        347 5.4990e+01 0.0000e+00
      2.589     4.5020    11.4416     88.375  17.319468     29.341      6.955   251.8145     1.9005     2.3807     0.0130      0.124      2.538      3.682        348 5.1736e+01 0.0000e+00
      2.608     4.5025    11.4380     88.344  17.311640     29.342      6.956   251.6631     1.9005     2.4076     0.0130      0.116      2.558      3.711        349 5.8149e+01 0.0000e+00
      2.629     4.5026    11.4644     88.554  17.372916     29.437      6.958   252.1552     1.8803     2.4747     0.0130      0.107      2.581      3.743        350 5.3870e+01 0.0000e+00
      2.658     4.5030    11.4555     88.494  17.332110     29.389      6.959   252.1552     1.8682     2.4076     0.0130      0.099      2.607      3.782        351 5.1252e+01 0.0000e+00
      2.688     4.5033    11.4652     88.572  17.273523     29.247      6.957   251.8523     1.8844     2.3941     0.0129      0.095      2.637      3.825        352 5.2844e+01 0.0000e+00
      2.722     4.5039    11.4774     88.678  17.297662     29.342      6.960   252.0038     1.9329     2.4344     0.0130      0.095      2.672      3.875        353 4.5949e+01 0.0000e+00
      2.764     4.5025    11.4675     88.618  17.331702     29.341      6.954   252.5338     2.0219     2.4479     0.0130      0.103      2.713      3.935        354 5.0049e+01 0.0000e+00
      2.813     4.4941    11.4768     88.696  17.349692     29.435      6.948   252.7231     2.0016     2.4076     0.0130      0.117      2.759      4.001        355 4.2011e+01 0.0000e+00
      2.861     4.4829    11.4806     88.725  17.334540     29.342      6.945   253.2531     2.0259     2.5553     0.0130      0.133      2.802      4.064        356 4.1249e+01 0.0000e+00
      2.897     4.4742    11.4835     88.748  17.350559     29.445      6.946   252.8745     2.0178     2.4479     0.0130      0.146      2.836      4.115        357 4.9938e+01 0.0000e+00
      2.921     4.4691    11.4756     88.689  17.329759     29.362      6.943   253.2909     2.0704     2.3136     0.0130      0.152      2.861      4.150        358 3.9556e+01 0.0000e+00
      2.935     4.4677    11.4712     88.656  17.301163     29.370      6.944   253.0638     2.1229     2.3673     0.0130      0.147      2.877      4.174        359 4.0955e+01 0.0000e+00
      2.947     4.4704    11.4743     88.680  17.297250     29.328      6.948   253.2909     2.0825     2.4210     0.0129      0.135      2.892      4.195        360 4.2988e+01 0.0000e+00
      2.965     4.4739    11.4708     88.654  17.304996     29.377      6.951   253.5181     2.1027     2.4210     0.0129      0.119      2.911      4.221        361 3.8295e+01 0.0000e+00
      2.992     4.4756    11.4683     88.636  17.321156     29.374      6.955   253.2909     2.0542     2.4479     0.0129      0.103      2.938      4.261        362 4.0416e+01 0.0000e+00
      3.031     4.4804    11.4666     88.625  17.306773     29.370      6.956   253.7074     2.0219     2.3807     0.0130      0.093      2.974      4.314        363 3.5782e+01 0.0000e+00
      3.075     4.4873    11.4600     88.575  17.322895     29.369      6.954   254.1995     1.9976     2.4747     0.0130      0.093      3.018      4.377        364 3.3659e+01 0.0000e+00
      3.127     4.4901    11.4661     88.623  17.360359     29.459      6.946   254.8431     2.0016     2.5687     0.0130      0.106      3.065      4.445        365 3.3045e+01 0.0000e+00
      3.174     4.4900    11.4676     88.634  17.319415     29.357      6.941   254.7674     2.0057     2.4076     0.0130      0.125      3.107      4.506        366 2.9052e+01 0.0000e+00
      3.202     4.4903    11.4648     88.612  17.314580     29.354      6.940   254.6159     2.0785     2.4210     0.0130      0.141      3.134      4.546        367 3.0294e+01 0.0000e+00
      3.213     4.4910    11.4599     88.572  17.336742     29.402      6.941   254.5402     2.0946     2.3941     0.0130      0.146      3.147      4.565        368 2.7577e+01 0.0000e+00
      3.213     4.4913    11.4571     88.547  17.321469     29.354      6.938   254.5781     2.0866     2.4479     0.0130      0.137      3.151      4.570        369 2.6047e+01 0.0000e+00
      3.215     4.4916    11.4566     88.541  17.363219     29.448      6.943   254.3509     2.1149     2.4210     0.0130      0.117      3.153      4.572        370 2.7579e+01 0.0000e+00
      3.216     4.4921    11.4519     88.499  17.314417     29.353      6.944   254.4266     2.0542     2.4210     0.0130      0.090      3.153      4.573        371 2.5801e+01 0.0000e+00
      3.215     4.4927    11.4348     88.364  17.263672     29.258      6.947   254.6159     2.0946     2.4344     0.0129      0.060      3.153      4.572        372 2.8128e+01 0.0000e+00
      3.214     4.4934    11.4323     88.330  17.307840     29.353      6.949   254.3888     2.0785     2.4210     0.0130      0.033      3.153      4.572        373 2.9474e+01 0.0000e+00
      3.214     4.4940    11.4323     88.304  17.318715     29.352      6.951   254.3509     2.1027     2.5016     0.0130      0.013      3.153      4.573        374 2.8066e+01 0.0000e+00
      3.217     4.4944    11.4296     88.273  17.309403     29.351      6.959   254.0859     1.9450     2.2196     0.0130      0.004      3.158      4.580        375 2.8860e+01 0.0000e+00
      3.229     4.4944    11.4185     88.179  17.319429     29.351      6.957   254.1238     1.9612     2.3002     0.0130      0.005      3.169      4.597        376 2.7192e+01 0.0000e+00
      3.249     4.4941    11.4308     88.266  17.335870     29.397      6.964   254.6538     1.9450     2.1659     0.0130      0.012      3.187      4.623        377 2.7013e+01 0.0000e+00
      3.271     4.4928    11.4285     88.240  17.318575     29.350      6.964   254.3888     1.9814     2.2196     0.0130      0.023      3.210      4.656        378 2.7984e+01 0.0000e+00
      3.302     4.4917    11.4325     88.268  17.311320     29.350      6.967   254.9566     1.9288     2.3941     0.0130      0.039      3.237      4.694        379 2.6519e+01 0.0000e+00
      3.329     4.4906    11.4405     88.328  17.315266     29.352      6.968   254.6159     1.9531     2.3673     0.0130      0.057      3.264      4.733        380 2.6176e+01 0.0000e+00
      3.351     4.4884    11.4433     88.348  17.313664     29.353      6.966   254.7674     1.9652     2.5016     0.0130      0.072      3.288      4.768        381 2.6574e+01 0.0000e+00
      3.377     4.4869    11.4478     88.381  17.372580     29.449      6.966   254.7295     1.9572     2.4479     0.0130      0.085      3.314      4.806        382 2.5206e+01 0.0000e+00
      3.410     4.4802    11.4511     88.413  17.360479     29.451      6.965   254.7674     2.0785     2.3136     0.0130      0.096      3.344      4.849        383 2.4666e+01 0.0000e+00
      3.442     4.4694    11.4529     88.435  17.269459     29.263      6.965   255.3352     2.0825     2.3941     0.0129      0.104      3.372      4.891        384 2.4270e+01 0.0000e+00
      3.463     4.4643    11.4465     88.392  17.278424     29.317      6.965   254.9945     2.0906     2.4344     0.0129      0.107      3.395      4.925        385 2.3013e+01 0.0000e+00
      3.482     4.4616    11.4512     88.434  17.260426     29.281      6.967   255.3352     2.0946     2.4479     0.0129      0.106      3.417      4.956        386 2.3909e+01 0.0000e+00
      3.510     4.4578    11.4450     88.389  17.262226     29.285      6.968   255.1081     2.1027     2.3673     0.0129      0.103      3.442      4.992        387 2.3217e+01 0.0000e+00
      3.535     4.4546    11.4438     88.381  17.305816     29.383      6.970   255.6381     2.0866     2.3673     0.0129      0.102      3.467      5.029        388 2.1823e+01 0.0000e+00
      3.560     4.4528    11.4455     88.385  17.324710     29.387      6.967   255.2974     2.0866     2.4747     0.0129      0.101      3.492      5.065        389 2.2086e+01 0.0000e+00
      3.588     4.4520    11.4507     88.413  17.297981     29.390      6.966   255.4488     2.1027     2.5150     0.0129      0.100      3.518      5.103        390 2.1274e+01 0.0000e+00
      3.615     4.4513    11.4488     88.392  17.279817     29.297      6.967   255.6002     2.0825     2.3941     0.0129      0.098      3.545      5.142        391 2.0210e+01 0.0000e+00
      3.643     4.4509    11.4567     88.453  17.347316     29.487      6.966   255.7138     2.1310     2.3539     0.0130      0.099      3.573      5.182        392 2.0111e+01 0.0000e+00
      3.672     4.4533    11.4572     88.453  17.332511     29.393      6.963   255.8652     2.1796     2.4747     0.0129      0.103      3.600      5.221        393 1.9239e+01 0.0000e+00
      3.697     4.4571    11.4407     88.324  17.327874     29.441      6.960   255.7895     2.1512     2.4210     0.0130      0.106      3.625      5.256        394 1.8298e+01 0.0000e+00
      3.717     4.4600    11.4370     88.296  17.323455     29.391      6.962   256.3574     2.1715     2.4747     0.0129      0.104      3.645      5.286        395 1.8797e+01 0.0000e+00
      3.735     4.4621    11.4279     88.224  17.308377     29.387      6.964   256.0545     2.0785     2.4210     0.0129      0.101      3.665      5.315        396 1.7349e+01 0.0000e+00
      3.759     4.4637    11.4173     88.150  17.317004     29.384      6.963   256.2059     2.0946     2.4747     0.0129      0.098      3.688      5.349        397 1.6674e+01 0.0000e+00
      3.788     4.4640    11.4246     88.214  17.253453     29.288      6.964   256.2816     2.1189     2.4479     0.0129      0.096      3.714      5.387        398 1.7162e+01 0.0000e+00
      3.815     4.4603    11.4206     88.193  17.268933     29.286      6.963   256.2816     2.0987     2.5150     0.0129      0.095      3.740      5.425        399 1.5383e+01 0.0000e+00
      3.840     4.4552    11.4284     88.259  17.297739     29.380      6.963   256.4331     2.1270     2.3941     0.0129      0.094      3.765      5.461        400 1.5336e+01 0.0000e+00
      3.863     4.4525    11.4437     88.380  17.276871     29.289      6.966   256.5466     2.1512     2.5419     0.0129      0.094      3.790      5.496        401 1.4892e+01 0.0000e+00
      3.890     4.4520    11.4353     88.316  17.324536     29.437      6.965   256.9252     2.1472     2.4747     0.0130      0.096      3.816      5.534        402 1.3818e+01 0.0000e+00
      3.920     4.4508    11.4290     88.268  17.327320     29.392      6.966   257.0009     2.1755     2.4613     0.0129      0.100      3.845      5.577        403 1.4268e+01 0.0000e+00
      3.953     4.4499    11.4272     88.248  17.303042     29.392      6.964   257.0388     2.0946     2.4210     0.0129      0.105      3.876      5.621        404 1.3095e+01 0.0000e+00
      3.983     4.4499    11.4138     88.136  17.325118     29.394      6.963   257.1145     2.0542     2.4210     0.0129      0.108      3.906      5.666        405 1.2428e+01 0.0000e+00
      4.015     4.4497    11.4040     88.053  17.359113     29.490      6.961   257.1902     2.1108     2.4747     0.0130      0.111      3.938      5.713        406 1.2558e+01 0.0000e+00
      4.051     4.4524    11.3941     87.970  17.320003     29.394      6.960   257.8338     2.0785     2.4210     0.0129      0.116      3.973      5.763        407 1.1732e+01 0.0000e+00
      4.087     4.4561    11.3852     87.898  17.314524     29.395      6.957   257.8717     2.0704     2.3941     0.0129      0.122      4.009      5.814        408 1.1541e+01 0.0000e+00
      4.125     4.4599    11.3807     87.862  17.306665     29.392      6.954   258.4774     2.0906     2.4613     0.0129      0.129      4.045      5.867        409 1.1315e+01 0.0000e+00
      4.162     4.4629    11.3934     87.955  17.270516     29.294      6.952   258.2502     2.0866     2.4210     0.0129      0.133      4.082      5.920        410 1.0746e+01 0.0000e+00
      4.199     4.4637    11.3997     87.998  17.329878     29.432      6.949   258.6288     2.0744     2.4747     0.0130      0.137      4.119      5.974        411 1.0459e+01 0.0000e+00
      4.240     4.4645    11.4011     88.008  17.321690     29.382      6.948   258.9317     2.0744     2.4747     0.0129      0.142      4.157      6.030        412 1.0275e+01 0.0000e+00
      4.279     4.4648    11.4102     88.089  17.310338     29.381      6.945   258.3638     2.2038     2.3404     0.0129      0.146      4.194      6.084        413 9.9042e+00 0.0000e+00
      4.313     4.4624    11.4202     88.176  17.314372     29.380      6.945   259.2724     2.2281     2.4881     0.0129      0.147      4.228      6.133        414 9.7895e+00 0.0000e+00
      4.344     4.4582    11.4288     88.246  17.257405     29.285      6.943   259.1967     2.2604     2.4344     0.0129      0.146      4.259      6.179        415 9.6792e+00 0.0000e+00
      4.375     4.4549    11.4359     88.302  17.262701     29.287      6.944   258.9695     2.1876     2.4076     0.0129      0.143      4.289      6.222        416 9.2756e+00 0.0000e+00
      4.403     4.4525    11.4351     88.298  17.307780     29.386      6.948   258.5531     2.2038     2.3807     0.0129      0.138      4.319      6.263        417 9.1404e+00 0.0000e+00
      4.433     4.4509    11.4387     88.327  17.319836     29.390      6.945   258.7424     2.2240     2.4747     0.0129      0.133      4.351      6.310        418 8.8919e+00 0.0000e+00
      4.475     4.4502    11.4469     88.392  17.336597     29.439      6.943   259.5374     2.2079     2.5419     0.0130      0.130      4.389      6.366        419 8.4351e+00 0.0000e+00
      4.519     4.4481    11.4413     88.348  17.316557     29.394      6.943   259.4617     2.2240     2.4881     0.0129      0.131      4.429      6.424        420 8.2844e+00 0.0000e+00
      4.554     4.4454    11.4476     88.396  17.255879     29.299      6.939   259.0452     2.1391     2.3136     0.0129      0.133      4.463      6.474        421 8.0934e+00 0.0000e+00
      4.581     4.4456    11.4500     88.413  17.263946     29.302      6.945   259.3102     2.1391     2.4076     0.0129      0.135      4.492      6.516        422 7.9774e+00 0.0000e+00
      4.608     4.4500    11.4670     88.545  17.306518     29.399      6.943   259.6509     2.1512     2.4881     0.0129      0.135      4.522      6.559        423 7.8930e+00 0.0000e+00
      4.645     4.4543    11.4732     88.596  17.262164     29.304      6.942   259.9538     2.1391     2.5016     0.0129      0.135      4.557      6.609        424 7.5697e+00 0.0000e+00
      4.688     4.4558    11.4805     88.653  17.259877     29.300      6.938   260.1052     2.1310     2.3941     0.0129      0.137      4.597      6.667        425 7.3951e+00 0.0000e+00
      4.731     4.4564    11.4903     88.730  17.309365     29.390      6.934   260.5974     2.1512     2.3941     0.0129      0.139      4.637      6.725        426 7.2656e+00 0.0000e+00
      4.767     4.4571    11.4715     88.585  17.319109     29.389      6.933   260.1809     2.1634     2.3539     0.0129      0.139      4.674      6.778        427 7.0384e+00 0.0000e+00
      4.799     4.4580    11.4828     88.674  17.336648     29.436      6.937   260.3702     2.1634     2.3807     0.0130      0.140      4.707      6.827        428 6.9217e+00 0.0000e+00
      4.834     4.4584    11.4633     88.527  17.317170     29.387      6.937   260.4838     2.1391     2.3807     0.0129      0.142      4.740      6.875        429 6.7731e+00 0.0000e+00
      4.867     4.4583    11.4431     88.374  17.313717     29.386      6.938   260.5595     2.3292     2.2464     0.0129      0.145      4.775      6.926        430 6.5789e+00 0.0000e+00
      4.907     4.4581    11.4388     88.341  17.370578     29.481      6.937   260.8245     2.3575     2.2062     0.0130      0.145      4.814      6.982        431 6.3646e+00 0.0000e+00
      4.953     4.4574    11.4292     88.267  17.364939     29.481      6.936   261.3924     2.3413     2.2196     0.0130      0.146      4.855      7.042        432 6.0777e+00 0.0000e+00
      4.993     4.4576    11.4230     88.215  17.320736     29.386      6.930   261.0895     2.3615     2.1927     0.0129      0.146      4.893      7.096        433 5.9462e+00 0.0000e+00
      5.021     4.4587    11.4163     88.157  17.307056     29.387      6.932   261.1652     2.2240     2.4076     0.0129      0.145      4.923      7.141        434 5.8384e+00 0.0000e+00
      5.048     4.4595    11.4195     88.178  17.263431     29.292      6.934   260.9002     2.1998     2.4076     0.0129      0.143      4.950      7.180        435 5.7198e+00 0.0000e+00
      5.074     4.4597    11.4148     88.140  17.315762     29.386      6.934   260.9381     2.2079     2.3673     0.0129      0.140      4.978      7.221        436 5.5861e+00 0.0000e+00
      5.108     4.4599    11.4238     88.209  17.330831     29.432      6.937   261.3924     2.2240     2.4747     0.0130      0.135      5.010      7.267        437 5.4216e+00 0.0000e+00
      5.145     4.4606    11.4281     88.243  17.274311     29.290      6.936   261.3167     2.2847     2.4210     0.0129      0.131      5.041      7.313        438 5.3458e+00 0.0000e+00
      5.169     4.4620    11.4245     88.217  17.297201     29.384      6.937   261.1652     2.2766     2.3941     0.0129      0.125      5.066      7.349        439 5.2353e+00 0.0000e+00
      5.187     4.4633    11.4217     88.198  17.272711     29.289      6.941   260.9381     2.2766     2.4747     0.0129      0.116      5.086      7.377        440 5.2187e+00 0.0000e+00
      5.205     4.4638    11.4259     88.231  17.245523     29.288      6.943   260.9381     2.2766     2.3807     0.0129      0.108      5.105      7.405        441 5.2081e+00 0.0000e+00
      5.228     4.4636    11.4235     88.212  17.271771     29.286      6.946   260.9002     2.2240     2.5150     0.0129      0.103      5.130      7.439        442 5.0693e+00 0.0000e+00
      5.259     4.4618    11.4143     88.140  17.299310     29.381      6.947   261.1652     2.2159     2.4076     0.0129      0.101      5.161      7.484        443 4.9369e+00 0.0000e+00
      5.298     4.4593    11.4063     88.077  17.270516     29.286      6.948   261.5438     2.2240     2.4076     0.0129      0.101      5.197      7.538        444 4.8104e+00 0.0000e+00
      5.342     4.4576    11.4066     88.078  17.337239     29.430      6.944   262.0738     2.2443     2.4076     0.0130      0.106      5.236      7.595        445 4.6856e+00 0.0000e+00
      5.379     4.4567    11.4077     88.086  17.364440     29.480      6.940   262.2252     2.2159     2.4881     0.0130      0.113      5.271      7.645        446 4.6298e+00 0.0000e+00
      5.404     4.4565    11.4075     88.085  17.325564     29.387      6.937   262.3767     2.2726     2.5150     0.0129      0.122      5.298      7.685        447 4.5942e+00 0.0000e+00
      5.426     4.4569    11.4063     88.076  17.355987     29.483      6.937   262.1495     2.2766     2.3404     0.0130      0.127      5.323      7.721        448 4.4989e+00 0.0000e+00
      5.454     4.4576    11.4133     88.135  17.326580     29.388      6.940   262.3009     2.2806     2.3539     0.0129      0.128      5.351      7.761        449 4.4332e+00 0.0000e+00
      5.489     4.4585    11.4154     88.153  17.302896     29.388      6.937   262.7552     2.2847     2.4881     0.0129      0.127      5.383      7.808        450 4.3211e+00 0.0000e+00
      5.525     4.4590    11.4216     88.202  17.326197     29.387      6.934   262.9445     2.1310     2.3941     0.0129      0.125      5.417      7.857        451 4.1934e+00 0.0000e+00
      5.557     4.4591    11.4297     88.264  17.297582     29.386      6.934   263.2095     2.1391     2.4479     0.0129      0.121      5.448      7.902        452 4.1369e+00 0.0000e+00
      5.583     4.4588    11.4285     88.253  17.279239     29.291      6.933   263.2852     2.1472     2.4479     0.0129      0.118      5.476      7.943        453 4.0399e+00 0.0000e+00
      5.612     4.4580    11.4299     88.261  17.319391     29.433      6.935   263.0960     2.1391     2.3404     0.0130      0.118      5.502      7.980        454 3.9513e+00 0.0000e+00
      5.634     4.4573    11.4388     88.328  17.277247     29.291      6.935   262.8688     2.4707     2.4210     0.0129      0.118      5.525      8.013        455 3.8954e+00 0.0000e+00
      5.654     4.4573    11.4417     88.352  17.302054     29.387      6.939   263.2095     2.4869     2.4613     0.0129      0.115      5.550      8.049        456 3.7680e+00 0.0000e+00
      5.690     4.4571    11.4438     88.368  17.318152     29.387      6.938   263.7395     2.4990     2.3404     0.0129      0.112      5.582      8.095        457 3.6567e+00 0.0000e+00
      5.730     4.4576    11.4432     88.365  17.257213     29.292      6.932   264.2695     2.4505     2.4210     0.0129      0.111      5.619      8.150        458 3.5635e+00 0.0000e+00
      5.769     4.4594    11.4501     88.419  17.318626     29.387      6.930   264.1938     2.3858     2.5150     0.0129      0.114      5.657      8.206        459 3.4451e+00 0.0000e+00
      5.809     4.4604    11.4547     88.457  17.360256     29.482      6.924   264.5345     2.4343     2.4747     0.0130      0.121      5.697      8.263        460 3.3668e+00 0.0000e+00
      5.851     4.4607    11.4537     88.450  17.323937     29.385      6.920   264.8374     2.4100     2.4210     0.0129      0.131      5.737      8.321        461 3.2839e+00 0.0000e+00
      5.891     4.4606    11.4535     88.447  17.334191     29.431      6.918   265.2538     2.4343     2.3673     0.0130      0.141      5.774      8.375        462 3.2217e+00 0.0000e+00
      5.923     4.4599    11.4517     88.431  17.317862     29.384      6.918   264.7238     2.3534     2.5284     0.0129      0.148      5.806      8.421        463 3.2158e+00 0.0000e+00
      5.948     4.4585    11.4559     88.460  17.314626     29.384      6.918   264.6481     2.3494     2.3941     0.0129      0.149      5.833      8.460        464 3.1880e+00 0.0000e+00
      5.973     4.4581    11.4466     88.386  17.308584     29.385      6.924   264.5724     2.3494     2.4076     0.0129      0.142      5.860      8.499        465 3.1341e+00 0.0000e+00
      6.006     4.4586    11.4505     88.414  17.266116     29.291      6.925   264.5345     2.3494     2.3941     0.0129      0.135      5.890      8.544        466 3.0693e+00 0.0000e+00
      6.040     4.4585    11.4477     88.395  17.308214     29.386      6.926   264.8374     2.3696     2.4076     0.0129      0.129      5.925      8.594        467 3.0337e+00 0.0000e+00
      6.080     4.4591    11.4422     88.352  17.315460     29.386      6.923   265.0645     2.4424     2.3539     0.0129      0.126      5.964      8.650        468 2.9871e+00 0.0000e+00
      6.126     4.4599    11.4554     88.453  17.257098     29.291      6.917   266.3138     2.4020     2.3673     0.0129      0.128      6.006      8.711        469 2.9072e+00 0.0000e+00
      6.168     4.4606    11.4539     88.439  17.262314     29.290      6.912   265.7838     2.3939     2.3404     0.0129      0.134      6.045      8.767        470 2.8602e+00 0.0000e+00
      6.198     4.4608    11.4569     88.462  17.279337     29.337      6.911   265.5188     2.3898     2.3404     0.0129      0.140      6.074      8.809        471 2.8397e+00 0.0000e+00
      6.214     4.4601    11.4492     88.403  17.265547     29.289      6.916   265.0645     2.2928     2.4747     0.0129      0.140      6.093      8.837        472 2.8205e+00 0.0000e+00
      6.226     4.4591    11.4443     88.365  17.309108     29.384      6.917   264.9888     2.2847     2.4479     0.0129      0.133      6.107      8.857        473 2.7653e+00 0.0000e+00
      6.241     4.4579    11.4493     88.404  17.314023     29.384      6.921   264.6481     2.2766     2.4344     0.0129      0.120      6.125      8.883        474 2.7202e+00 0.0000e+00
      6.269     4.4569    11.4456     88.374  17.259430     29.291      6.927   265.2917     2.2847     2.4613     0.0129      0.107      6.154      8.925        475 2.6609e+00 0.0000e+00
      6.315     4.4564    11.4514     88.418  17.317782     29.387      6.921   266.5031     2.2240     2.4479     0.0129      0.101      6.195      8.986        476 2.5572e+00 0.0000e+00
      6.368     4.4568    11.4445     88.365  17.359935     29.482      6.909   266.8817     2.2079     2.3404     0.0130      0.103      6.244      9.057        477 2.4743e+00 0.0000e+00
      6.419     4.4571    11.4373     88.306  17.325503     29.388      6.901   267.1088     2.2362     2.3941     0.0129      0.115      6.293      9.127        478 2.3750e+00 0.0000e+00
      6.464     4.4564    11.4274     88.226  17.390268     29.530      6.896   266.9952     2.2159     2.3404     0.0130      0.133      6.336      9.190        479 2.2706e+00 0.0000e+00
      6.501     4.4559    11.4209     88.176  17.368238     29.482      6.896   266.5410     2.1553     2.5150     0.0130      0.151      6.375      9.245        480 2.2016e+00 0.0000e+00
      6.536     4.4556    11.4071     88.072  17.323287     29.388      6.898   266.6167     2.1512     2.5150     0.0129      0.165      6.412      9.300        481 2.1223e+00 0.0000e+00
      6.580     4.4556    11.4056     88.061  17.357309     29.484      6.896   267.0710     2.1755     2.3941     0.0130      0.172      6.452      9.358        482 2.0733e+00 0.0000e+00
      6.622     4.4557    11.4073     88.075  17.325898     29.389      6.894   266.8438     2.1593     2.4210     0.0129      0.172      6.491      9.415        483 2.0076e+00 0.0000e+00
      6.655     4.4556    11.4043     88.052  17.303113     29.389      6.898   267.2602     2.0219     2.4613     0.0129      0.164      6.524      9.464        484 1.9148e+00 0.0000e+00
      6.683     4.4552    11.4127     88.117  17.326399     29.389      6.900   266.4274     2.0097     2.5687     0.0129      0.155      6.552      9.504        485 1.8588e+00 0.0000e+00
      6.707     4.4549    11.4182     88.160  17.296918     29.389      6.903   266.2760     2.0057     2.3002     0.0129      0.144      6.575      9.537        486 1.8361e+00 0.0000e+00
      6.724     4.4546    11.4282     88.238  17.280535     29.294      6.909   265.9352     2.0097     2.3270     0.0129      0.133      6.596      9.567        487 1.8067e+00 0.0000e+00
      6.748     4.4535    11.4282     88.237  17.317154     29.437      6.914   266.1245     2.0299     2.4747     0.0130      0.122      6.621      9.603        488 1.7615e+00 0.0000e+00
      6.784     4.4520    11.4338     88.276  17.280979     29.295      6.917   266.2760     2.0421     2.4747     0.0129      0.114      6.654      9.651        489 1.7226e+00 0.0000e+00
      6.823     4.4519    11.4347     88.280  17.295922     29.391      6.917   266.9952     2.0138     2.4344     0.0129      0.110      6.693      9.707        490 1.6677e+00 0.0000e+00
      6.867     4.4528    11.4469     88.371  17.268925     29.298      6.910   267.6767     1.9814     2.4210     0.0129      0.113      6.733      9.765        491 1.6269e+00 0.0000e+00
      6.905     4.4533    11.4559     88.439  17.255311     29.298      6.905   267.1088     2.0259     2.3941     0.0129      0.120      6.768      9.816        492 1.5575e+00 0.0000e+00
      6.932     4.4534    11.4536     88.418  17.312866     29.392      6.903   267.0331     2.1027     2.3539     0.0129      0.127      6.797      9.859        493 1.5242e+00 0.0000e+00
      6.958     4.4534    11.4496     88.384  17.315829     29.391      6.904   266.9952     2.0744     2.3941     0.0129      0.132      6.826      9.900        494 1.4914e+00 0.0000e+00
      6.993     4.4537    11.4516     88.402  17.310889     29.391      6.906   267.4495     2.0663     2.3404     0.0129      0.136      6.861      9.950        495 1.4133e+00 0.0000e+00
      7.037     4.4539    11.4465     88.365  17.319017     29.391      6.904   268.0553     2.0866     2.3941     0.0129      0.138      6.902     10.010        496 1.3829e+00 0.0000e+00
      7.082     4.4542    11.4445     88.351  17.335347     29.438      6.898   268.4717     2.2159     2.5016     0.0130      0.140      6.945     10.072        497 1.3489e+00 0.0000e+00
      7.125     4.4538    11.4443     88.350  17.320199     29.391      6.898   268.1310     2.2443     2.4881     0.0129      0.142      6.985     10.132        498 1.3271e+00 0.0000e+00
      7.162     4.4523    11.4406     88.319  17.308237     29.390      6.896   268.5095     2.1755     2.3673     0.0129      0.145      7.024     10.188        499 1.2680e+00 0.0000e+00
      7.202     4.4507    11.4359     88.280  17.261336     29.296      6.896   268.4338     2.1998     2.4210     0.0129      0.151      7.062     10.244        500 1.2018e+00 0.0000e+00
      7.241     4.4496    11.4400     88.311  17.260035     29.297      6.896   268.6610     2.1472     2.4479     0.0129      0.157      7.101     10.299        501 1.1728e+00 0.0000e+00
      7.279     4.4488    11.4449     88.347  17.309855     29.394      6.892   268.8881     2.1512     2.4210     0.0129      0.159      7.140     10.355        502 1.1098e+00 0.0000e+00
      7.322     4.4472    11.4440     88.338  17.317867     29.395      6.895   268.8881     2.1270     2.3404     0.0129      0.159      7.180     10.414        503 1.1013e+00 0.0000e+00
      7.366     4.4461    11.4366     88.280  17.309330     29.396      6.891   268.9638     2.1472     2.5150     0.0129      0.158      7.220     10.473        504 1.0747e+00 0.0000e+00
      7.403     4.4470    11.4328     88.252  17.290847     29.350      6.891   268.8503     2.2159     2.4613     0.0129      0.157      7.255     10.523        505 1.0299e+00 0.0000e+00
      7.425     4.4482    11.4247     88.188  17.251972     29.304      6.894   268.9638     2.2240     2.3941     0.0129      0.153      7.280     10.559        506 1.0608e+00 0.0000e+00
      7.442     4.4487    11.4311     88.229  17.268812     29.303      6.899   268.3203     2.2240     2.3673     0.0129      0.144      7.298     10.585        507 1.0210e+00 0.0000e+00
      7.458     4.4488    11.4401     88.287  17.299523     29.396      6.904   268.1310     2.1998     2.3673     0.0129      0.131      7.311     10.604        508 1.0305e+00 0.0000e+00
      7.463     4.4480    11.4355     88.254  17.273018     29.301      6.906   268.0553     2.2321     2.4210     0.0129      0.113      7.318     10.615        509 1.0456e+00 0.0000e+00
      7.467     4.4470    11.4449     88.333  17.301798     29.396      6.913   267.9038     2.1472     2.4210     0.0129      0.092      7.328     10.628        510 9.9898e-01 0.0000e+00
      7.488     4.4463    11.4522     88.392  17.322973     29.396      6.918   267.8281     2.1553     2.4613     0.0129      0.073      7.348     10.657        511 9.9950e-01 0.0000e+00
      7.522     4.4457    11.4529     88.399  17.305930     29.398      6.916   268.3960     2.1512     2.5016     0.0129      0.064      7.379     10.702        512 9.5661e-01 0.0000e+00
      7.564     4.4446    11.4528     88.403  17.323007     29.398      6.909   269.5695     2.1432     2.4344     0.0129      0.068      7.420     10.761        513 9.0859e-01 0.0000e+00
      7.613     4.4445    11.4480     88.369  17.331355     29.446      6.902   269.8724     2.0421     2.5284     0.0130      0.083      7.464     10.825        514 8.7413e-01 0.0000e+00
      7.655     4.4450    11.4484     88.370  17.325174     29.400      6.896   270.0238     2.0178     2.4344     0.0129      0.103      7.505     10.885        515 8.6905e-01 0.0000e+00
      7.691     4.4443    11.4405     88.311  17.301066     29.400      6.895   269.6453     2.0219     2.4881     0.0129      0.122      7.542     10.938        516 8.8921e-01 0.0000e+00
      7.726     4.4404    11.4420     88.327  17.272459     29.304      6.893   270.4403     2.0340     2.4210     0.0129      0.140      7.577     10.989        517 8.5535e-01 0.0000e+00
      7.764     4.4359    11.4422     88.324  17.301509     29.400      6.895   270.2510     2.0502     2.3404     0.0129      0.152      7.613     11.041        518 8.2329e-01 0.0000e+00
      7.799     4.4368    11.4433     88.329  17.264914     29.309      6.891   270.2510     2.0421     2.3404     0.0129      0.155      7.648     11.092        519 8.3138e-01 0.0000e+00
      7.834     4.4397    11.4390     88.296  17.258738     29.314      6.892   270.0995     2.0178     2.3136     0.0129      0.152      7.685     11.145        520 8.0465e-01 0.0000e+00
      7.876     4.4407    11.4314     88.226  17.309197     29.407      6.891   270.3267     2.0259     2.4344     0.0129      0.149      7.725     11.205        521 7.8912e-01 0.0000e+00
      7.924     4.4417    11.4316     88.214  17.291016     29.357      6.889   270.4024     2.0906     2.4344     0.0129      0.148      7.767     11.265        522 7.7888e-01 0.0000e+00
      7.960     4.4436    11.4261     88.167  17.310996     29.404      6.892   270.0995     2.0906     2.3941     0.0129      0.150      7.802     11.316        523 7.4931e-01 0.0000e+00
      7.982     4.4449    11.4255     88.164  17.313965     29.403      6.897   269.7588     2.0663     2.3941     0.0129      0.148      7.827     11.352        524 7.6031e-01 0.0000e+00
      8.001     4.4441    11.4282     88.175  17.316954     29.401      6.901   269.3803     2.0623     2.4881     0.0129      0.142      7.851     11.386        525 7.7168e-01 0.0000e+00
      8.033     4.4449    11.4318     88.200  17.307276     29.399      6.907   269.6831     2.0785     2.2733     0.0129      0.135      7.883     11.432        526 7.4644e-01 0.0000e+00
      8.079     4.4469    11.4307     88.207  17.266744     29.306      6.904   270.5917     2.3939     2.5016     0.0129      0.132      7.925     11.494        527 7.0317e-01 0.0000e+00
      8.131     4.4447    11.4450     88.331  17.308131     29.400      6.901   271.2353     2.4181     2.4210     0.0129      0.134      7.975     11.566        528 6.7682e-01 0.0000e+00
      8.184     4.4434    11.4433     88.326  17.315036     29.397      6.895   271.6895     2.4424     2.4210     0.0129      0.140      8.027     11.642        529 6.5115e-01 0.0000e+00
      8.241     4.4433    11.4460     88.349  17.317416     29.400      6.886   272.2953     2.4020     2.4344     0.0129      0.151      8.082     11.722        530 6.4505e-01 0.0000e+00
      8.299     4.4386    11.4509     88.393  17.334802     29.449      6.873   272.3710     2.1755     2.3002     0.0130      0.170      8.138     11.803        531 6.3145e-01 0.0000e+00
      8.356     4.4326    11.4512     88.398  17.263767     29.306      6.873   272.5981     2.1351     2.4210     0.0129      0.190      8.193     11.883        532 5.7738e-01 0.0000e+00
      8.410     4.4307    11.4469     88.364  17.257655     29.311      6.867   272.4467     2.1634     2.4479     0.0129      0.206      8.244     11.957        533 5.4154e-01 0.0000e+00
      8.454     4.4312    11.4418     88.324  17.312777     29.412      6.866   272.3331     2.1755     2.4479     0.0129      0.212      8.286     12.017        534 5.4205e-01 0.0000e+00
      8.483     4.4273    11.4365     88.285  17.313701     29.414      6.873   272.1060     2.1512     2.3404     0.0129      0.206      8.318     12.064        535 5.7257e-01 0.0000e+00
      8.510     4.4258    11.4284     88.224  17.256505     29.318      6.876   271.6517     2.1472     2.3941     0.0129      0.193      8.348     12.108        536 5.5137e-01 0.0000e+00
      8.547     4.4322    11.4299     88.237  17.265426     29.322      6.886   271.9545     2.1391     2.3941     0.0129      0.178      8.385     12.162        537 5.1831e-01 0.0000e+00
      8.595     4.4386    11.4224     88.181  17.302602     29.419      6.888   272.2574     2.1634     2.5284     0.0129      0.166      8.432     12.229        538 5.3424e-01 0.0000e+00
      8.652     4.4417    11.4316     88.252  17.299138     29.365      6.883   272.7496     2.0097     2.4344     0.0129      0.161      8.484     12.305        539 5.1348e-01 0.0000e+00
      8.707     4.4433    11.4322     88.253  17.299367     29.406      6.877   273.1281     2.0016     2.4747     0.0129      0.162      8.533     12.377        540 4.7938e-01 0.0000e+00
      8.746     4.4454    11.4265     88.208  17.272684     29.308      6.878   272.9767     2.0219     2.3673     0.0129      0.165      8.573     12.434        541 4.8451e-01 0.0000e+00
      8.774     4.4467    11.4330     88.258  17.302711     29.401      6.879   272.3710     2.0421     2.3673     0.0129      0.168      8.603     12.478        542 4.6937e-01 0.0000e+00
      8.799     4.4466    11.4293     88.228  17.321264     29.399      6.882   272.3710     2.0299     2.3941     0.0129      0.168      8.628     12.515        543 4.3939e-01 0.0000e+00
      8.824     4.4464    11.4174     88.134  17.308862     29.398      6.887   272.1817     2.0057     2.3136     0.0129      0.161      8.657     12.555        544 4.7338e-01 0.0000e+00
      8.859     4.4468    11.4140     88.108  17.318147     29.398      6.889   272.3710     2.0259     2.5150     0.0129      0.150      8.693     12.607        545 4.6477e-01 0.0000e+00
      8.909     4.4478    11.4173     88.135  17.309709     29.398      6.887   273.3553     2.0016     2.3807     0.0129      0.142      8.739     12.674        546 4.4219e-01 0.0000e+00
      8.965     4.4483    11.4161     88.127  17.319362     29.398      6.880   273.5067     2.0219     2.4479     0.0129      0.140      8.789     12.747        547 4.4170e-01 0.0000e+00
      9.012     4.4487    11.4138     88.109  17.335766     29.444      6.874   273.3931     2.0825     2.4210     0.0130      0.144      8.834     12.812        548 4.4022e-01 0.0000e+00
      9.048     4.4486    11.4185     88.144  17.318926     29.396      6.880   272.7874     2.0946     2.4076     0.0129      0.153      8.870     12.864        549 4.2324e-01 0.0000e+00
      9.075     4.4476    11.4251     88.197  17.310686     29.396      6.882   272.4467     2.1068     2.3673     0.0129      0.159      8.899     12.907        550 3.8893e-01 0.0000e+00
      9.102     4.4470    11.4296     88.235  17.316389     29.396      6.884   272.4467     2.0946     2.5284     0.0129      0.160      8.928     12.948        551 3.9131e-01 0.0000e+00
      9.135     4.4469    11.4404     88.319  17.311829     29.397      6.892   272.7874     2.1229     2.4479     0.0129      0.156      8.960     12.996        552 3.6725e-01 0.0000e+00
      9.175     4.4462    11.4418     88.327  17.316360     29.397      6.890   272.5981     2.1593     2.5150     0.0129      0.149      8.998     13.051        553 3.5868e-01 0.0000e+00
      9.216     4.4454    11.4390     88.301  17.310752     29.398      6.895   272.4845     2.1634     2.5150     0.0129      0.141      9.038     13.109        554 3.5801e-01 0.0000e+00
      9.257     4.4456    11.4426     88.329  17.318811     29.398      6.895   272.8253     2.1553     2.5284     0.0129      0.137      9.076     13.164        555 3.6225e-01 0.0000e+00
      9.291     4.4461    11.4437     88.339  17.335964     29.446      6.898   272.7117     2.1472     2.4076     0.0130      0.137      9.108     13.211        556 3.6705e-01 0.0000e+00
      9.316     4.4464    11.4429     88.333  17.319038     29.399      6.899   272.7874     2.1472     2.3941     0.0129      0.138      9.134     13.249        557 3.4162e-01 0.0000e+00
      9.338     4.4463    11.4374     88.285  17.310243     29.398      6.901   272.5981     2.1472     2.5150     0.0129      0.137      9.159     13.284        558 3.4417e-01 0.0000e+00
      9.365     4.4464    11.4317     88.238  17.317276     29.398      6.903   272.7117     2.1472     2.4210     0.0129      0.132      9.186     13.322        559 3.3814e-01 0.0000e+00
      9.396     4.4472    11.4256     88.190  17.310285     29.398      6.902   272.4467     2.3453     2.3807     0.0129      0.125      9.216     13.366        560 3.2575e-01 0.0000e+00
      9.430     4.4483    11.4264     88.197  17.318945     29.398      6.904   272.6738     2.3373     2.3404     0.0129      0.119      9.247     13.411        561 3.3922e-01 0.0000e+00
      9.461     4.4487    11.4211     88.158  17.306499     29.397      6.907   272.5603     2.3373     2.4881     0.0129      0.115      9.278     13.456        562 3.2423e-01 0.0000e+00
      9.491     4.4473    11.4151     88.115  17.266506     29.301      6.909   272.7496     2.3736     2.4613     0.0129      0.113      9.304     13.495        563 3.0611e-01 0.0000e+00
      9.512     4.4457    11.4066     88.048  17.309449     29.396      6.909   272.2953     2.3534     2.4479     0.0129      0.113      9.321     13.520        564 3.3293e-01 0.0000e+00
      9.512     4.4456    11.3989     87.987  17.341957     29.445      6.913   272.2195     2.4667     2.5150     0.0130      0.106      9.326     13.526        565 3.2469e-01 0.0000e+00
      9.505     4.4465    11.3952     87.955  17.314950     29.399      6.915   272.6738     2.4869     2.3673     0.0129      0.092      9.325     13.524        566 2.9624e-01 0.0000e+00
      9.509     4.4462    11.4004     87.987  17.313426     29.399      6.917   272.1817     2.4667     2.4479     0.0129      0.073      9.330     13.533        567 3.1302e-01 0.0000e+00
      9.529     4.4441    11.3997     87.966  17.314221     29.398      6.922   272.7117     2.4747     2.3673     0.0129      0.057      9.350     13.560        568 3.0300e-01 0.0000e+00
      9.563     4.4426    11.3946     87.914  17.313960     29.398      6.919   272.8253     2.2079     2.4479     0.0129      0.050      9.381     13.605        569 3.0500e-01 0.0000e+00
      9.604     4.4420    11.4093     88.018  17.313751     29.401      6.917   272.8631     2.1998     2.5150     0.0129      0.054      9.420     13.662        570 3.1121e-01 0.0000e+00
      9.650     4.4423    11.4119     88.033  17.314482     29.402      6.916   273.1660     2.2523     2.4479     0.0129      0.068      9.464     13.726        571 3.0761e-01 0.0000e+00
      9.695     4.4435    11.4060     87.987  17.313051     29.402      6.914   273.7338     2.2281     2.5150     0.0129      0.092      9.508     13.790        572 2.9243e-01 0.0000e+00
      9.739     4.4445    11.4036     87.969  17.315533     29.402      6.910   273.9610     2.2200     2.4210     0.0129      0.120      9.551     13.852        573 2.6107e-01 0.0000e+00
      9.783     4.4444    11.4093     88.015  17.281761     29.354      6.905   274.2260     2.2200     2.3941     0.0129      0.145      9.592     13.912        574 2.6625e-01 0.0000e+00
      9.822     4.4435    11.4025     87.963  17.266181     29.305      6.898   274.5667     2.2240     2.4881     0.0129      0.160      9.632     13.969        575 2.5149e-01 0.0000e+00
      9.861     4.4422    11.4040     87.975  17.305289     29.400      6.896   274.7938     2.2159     2.4747     0.0129      0.167      9.669     14.024        576 2.5735e-01 0.0000e+00
      9.896     4.4383    11.4149     88.059  17.321990     29.401      6.894   274.3396     2.1432     2.3673     0.0129      0.166      9.704     14.075        577 2.6187e-01 0.0000e+00
      9.930     4.4321    11.4141     88.053  17.304662     29.402      6.897   274.4531     2.1512     2.4479     0.0129      0.160      9.740     14.126        578 2.3591e-01 0.0000e+00
      9.970     4.4263    11.4404     88.257  17.267589     29.311      6.898   274.9074     2.1755     2.3941     0.0129      0.155      9.780     14.185        579 2.2650e-01 0.0000e+00
     10.019     4.4223    11.4529     88.353  17.249597     29.318      6.893   275.3238     2.1472     2.3673     0.0129      0.154      9.826     14.251        580 2.1971e-01 0.0000e+00
     10.070     4.4202    11.4559     88.376  17.267787     29.323      6.889   275.3617     2.1391     2.2867     0.0129      0.157      9.874     14.320        581 2.1100e-01 0.0000e+00
     10.115     4.4198    11.4666     88.459  17.333851     29.470      6.886   274.9074     2.1553     2.4344     0.0130      0.161      9.915     14.380        582 2.1786e-01 0.0000e+00
     10.145     4.4202    11.4711     88.492  17.315548     29.424      6.889   274.7560     2.1391     2.4344     0.0129      0.163      9.945     14.424        583 2.2455e-01 0.0000e+00
     10.164     4.4209    11.4761     88.531  17.260935     29.330      6.895   274.2638     2.1472     2.4479     0.0129      0.159      9.966     14.455        584 2.1446e-01 0.0000e+00
     10.181     4.4213    11.4669     88.459  17.312919     29.424      6.900   274.4153     2.1270     2.4613     0.0129      0.150      9.981     14.477        585 2.2974e-01 0.0000e+00
     10.190     4.4213    11.4683     88.470  17.310121     29.424      6.901   273.7338     2.2685     2.3270     0.0129      0.133      9.991     14.492        586 2.1933e-01 0.0000e+00
     10.194     4.4214    11.4555     88.372  17.264416     29.328      6.908   273.9988     2.3049     2.5419     0.0129      0.110      9.996     14.499        587 2.0426e-01 0.0000e+00
     10.196     4.4215    11.4556     88.372  17.310532     29.423      6.914   273.6203     2.2726     2.3941     0.0129      0.083      9.999     14.502        588 2.1949e-01 0.0000e+00
     10.196     4.4215    11.4484     88.316  17.311996     29.423      6.915   273.6581     2.2685     2.3404     0.0129      0.057     10.000     14.504        589 2.2383e-01 0.0000e+00
     10.200     4.4217    11.4448     88.289  17.321859     29.423      6.918   273.7717     2.1472     2.2464     0.0129      0.037     10.005     14.511        590 2.2656e-01 0.0000e+00
     10.211     4.4218    11.4318     88.191  17.327891     29.470      6.919   273.7338     2.1553     2.1927     0.0130      0.027     10.017     14.529        591 2.0378e-01 0.0000e+00
     10.235     4.4214    11.4254     88.142  17.274857     29.328      6.923   273.8096     2.1796     2.1927     0.0129      0.026     10.040     14.561        592 1.7697e-01 0.0000e+00
     10.266     4.4210    11.4284     88.167  17.298960     29.423      6.922   273.8474     2.1229     2.0853     0.0129      0.033     10.070     14.605        593 1.8351e-01 0.0000e+00
     10.304     4.4209    11.4220     88.117  17.268262     29.328      6.920   273.8474     2.1917     2.4881     0.0129      0.050     10.106     14.657        594 1.7480e-01 0.0000e+00
     10.342     4.4207    11.4342     88.212  17.253795     29.329      6.919   273.7338     2.2159     2.4747     0.0129      0.071     10.146     14.716        595 1.7122e-01 0.0000e+00
     10.393     4.4206    11.4257     88.146  17.257698     29.329      6.915   274.4531     2.1998     2.4210     0.0129      0.097     10.193     14.784        596 1.8477e-01 0.0000e+00
     10.447     4.4208    11.4247     88.139  17.263405     29.329      6.906   274.6424     2.2119     2.4479     0.0129      0.125     10.244     14.858        597 1.6891e-01 0.0000e+00
     10.500     4.4208    11.4306     88.185  17.305959     29.424      6.903   274.1503     2.0744     2.3941     0.0129      0.151     10.293     14.929        598 1.6086e-01 0.0000e+00
     10.542     4.4207    11.4284     88.168  17.293638     29.376      6.896   273.2417     2.1027     2.4076     0.0129      0.168     10.332     14.986        599 1.7666e-01 0.0000e+00
     10.566     4.4210 -9.990e-29 -9.990e-29  17.308370     29.424      6.897   273.0903     2.1270     2.4613     0.0129      0.173     10.356     15.021        600 1.9604e-01 0.0000e+00
     10.573     4.4217 -9.990e-29 -9.990e-29  17.317259     29.424      6.901   272.5224     2.1149     2.4881     0.0129      0.165     10.369     15.039        601 1.8444e-01 0.0000e+00
     10.582     4.4222 -9.990e-29 -9.990e-29  17.252943     29.329      6.903   272.2574     2.0866     2.3404     0.0129      0.147     10.377     15.051        602 1.5109e-01 0.0000e+00
     10.589     4.4225 -9.990e-29 -9.990e-29  17.269879     29.328      6.911   272.2195     2.0987     2.4613     0.0129      0.123     10.384     15.061        603 1.4679e-01 0.0000e+00
     10.596     4.4226 -9.990e-29 -9.990e-29  17.296183     29.422      6.915   271.6517     2.0906     2.4479     0.0129      0.094     10.391     15.071        604 1.4530e-01 0.0000e+00
     10.602     4.4227 -9.990e-29 -9.990e-29  17.279474     29.327      6.918   271.6138     2.0906     2.3673     0.0129      0.067     10.397     15.080        605 1.6269e-01 0.0000e+00
     10.609     4.4229 -9.990e-29 -9.990e-29  17.290673     29.422      6.924   271.4624     2.0866     2.4344     0.0129      0.045     10.402     15.087        606 1.7939e-01 0.0000e+00
     10.611     4.4230 -9.990e-29 -9.990e-29  17.282246     29.327      6.927   271.3867     1.9329     2.4881     0.0129      0.031     10.405     15.092        607 1.7825e-01 0.0000e+00
     10.612     4.4231 -9.990e-29 -9.990e-29  17.319594     29.469      6.931   271.3488     1.9208     2.4479     0.0130      0.024     10.407     15.094        608 2.0834e-01 0.0000e+00
     10.612     4.4230 -9.990e-29 -9.990e-29  17.333093     29.421      6.932   271.0081     1.9005     2.4344     0.0129      0.020     10.407     15.094        609 1.8669e-01 0.0000e+00
     10.613 -9.990e-29 -9.990e-29 -9.990e-29  17.295079     29.421      6.935   271.0460     1.8763     2.4210     0.0129      0.015     10.408     15.095        610 1.4452e-01 0.0000e+00
     10.614 -9.990e-29 -9.990e-29 -9.990e-29  17.278002     29.327      6.936   270.8188     2.2847     2.4210     0.0129      0.011     10.408     15.095        611 1.4552e-01 0.0000e+00
