* Sea-Bird SBE19plus  Data File:
* FileName = C:\DATA\061319_bvr50_0001.hex
* Software version 2.8.0.119 SB_Terminal.dll
* Temperature SN = 7809
* Conductivity SN = 7809
* System UpLoad Time = Jun 13 2019 10:53:00
* <ApplicationData>
* <Seaterm232>
* <SoftwareVersion>2.8.0.119</SoftwareVersion>
* <BuildDate>07-Nov-2018</BuildDate>
* </Seaterm232>
* </ApplicationData>
* cast   1 13 Jun 2019 10:35:28 samples 1 to 1219, avg = 1, stop = mag switch
# nquan = 16
# nvalues = 1051                        
# units = specified
# name 0 = depFM: Depth [fresh water, m]
# name 1 = dz/dtM: Descent Rate [m/s]
# name 2 = sbeox0Mg/L: Oxygen, SBE 43 [mg/l]
# name 3 = sbeox0PS: Oxygen, SBE 43 [% saturation]
# name 4 = specc: Specific Conductance [uS/cm]
# name 5 = c0uS/cm: Conductivity [uS/cm]
# name 6 = flECO-AFL: Fluorescence, WET Labs ECO-AFL/FL [mg/m^3]
# name 7 = ph: pH
# name 8 = orp: Oxidation Reduction Potential [mV]
# name 9 = par/sat/log: PAR/Logarithmic, Satlantic
# name 10 = turbWETntu0: Turbidity, WET Labs ECO [NTU]
# name 11 = prdM: Pressure, Strain Gauge [db]
# name 12 = prdE: Pressure, Strain Gauge [psi]
# name 13 = tv290C: Temperature [ITS-90, deg C]
# name 14 = density00: Density [density, kg/m^3]
# name 15 = flag:  0.000e+00
# span 0 =     -0.743,     10.515       
# span 1 =     -0.140,      0.110       
# span 2 =    -0.2985,    10.0816       
# span 3 =     -2.637,     98.422       
# span 4 =      0.794,    128.456       
# span 5 =   0.717633,  85.363214       
# span 6 =    -0.7662,    16.2241       
# span 7 =      3.009,     10.262       
# span 8 = -1240.7455,  1187.3620       
# span 9 = 1.2355e-01, 1.9885e+03       
# span 10 =    -4.5051,    13.3169      
# span 11 =     -0.728,     10.312      
# span 12 =     -1.056,     14.956      
# span 13 =     8.1952,    22.1564      
# span 14 =   997.7491,   999.9354      
# span 15 = 0.0000e+00, 0.0000e+00      
# interval = seconds: 0.25
# start_time = Jun 13 2019 10:35:28 [Instrument's time stamp, header]
# bad_flag = -9.990e-29
# <Sensors count="9" >
#   <sensor Channel="1" >
#     <!-- Count, Temperature -->
#     <TemperatureSensor SensorID="58" >
#       <SerialNumber>7809</SerialNumber>
#       <CalibrationDate>24-Mar-19</CalibrationDate>
#       <A0>1.21792325e-003</A0>
#       <A1>2.81669265e-004</A1>
#       <A2>-1.60333336e-006</A2>
#       <A3>1.98414625e-007</A3>
#       <Slope>1.00000000</Slope>
#       <Offset>0.0000</Offset>
#     </TemperatureSensor>
#   </sensor>
#   <sensor Channel="2" >
#     <!-- Frequency 0, Conductivity -->
#     <ConductivitySensor SensorID="3" >
#       <SerialNumber>7809</SerialNumber>
#       <CalibrationDate>24-Mar-19</CalibrationDate>
#       <UseG_J>1</UseG_J>
#       <!-- Cell const and series R are applicable only for wide range sensors. -->
#       <SeriesR>0.0000</SeriesR>
#       <CellConst>2000.0000</CellConst>
#       <ConductivityType>0</ConductivityType>
#       <Coefficients equation="0" >
#         <A>0.00000000e+000</A>
#         <B>0.00000000e+000</B>
#         <C>0.00000000e+000</C>
#         <D>0.00000000e+000</D>
#         <M>0.0</M>
#         <CPcor>-9.57000000e-008</CPcor>
#       </Coefficients>
#       <Coefficients equation="1" >
#         <G>-1.00589325e+000</G>
#         <H>1.26816302e-001</H>
#         <I>-1.51560448e-004</I>
#         <J>2.67137274e-005</J>
#         <CPcor>-9.57000000e-008</CPcor>
#         <CTcor>3.2500e-006</CTcor>
#         <!-- WBOTC not applicable unless ConductivityType = 1. -->
#         <WBOTC>0.00000000e+000</WBOTC>
#       </Coefficients>
#       <Slope>1.00000000</Slope>
#       <Offset>0.00000</Offset>
#     </ConductivitySensor>
#   </sensor>
#   <sensor Channel="3" >
#     <!-- Count, Pressure, Strain Gauge -->
#     <PressureSensor SensorID="46" >
#       <SerialNumber>7809</SerialNumber>
#       <CalibrationDate>11-Mar-19</CalibrationDate>
#       <PA0>4.56561833e-002</PA0>
#       <PA1>4.85095118e-004</PA1>
#       <PA2>-2.88327090e-012</PA2>
#       <PTEMPA0>-5.48784562e+001</PTEMPA0>
#       <PTEMPA1>5.53756816e+001</PTEMPA1>
#       <PTEMPA2>-5.86727098e-001</PTEMPA2>
#       <PTCA0>5.25246745e+005</PTCA0>
#       <PTCA1>1.22304214e+001</PTCA1>
#       <PTCA2>-3.56745036e-001</PTCA2>
#       <PTCB0>2.51668750e+001</PTCB0>
#       <PTCB1>3.75000000e-004</PTCB1>
#       <PTCB2>0.00000000e+000</PTCB2>
#       <Offset>0.000000</Offset>
#     </PressureSensor>
#   </sensor>
#   <sensor Channel="4" >
#     <!-- A/D voltage 0, Oxygen, SBE 43 -->
#     <OxygenSensor SensorID="38" >
#       <SerialNumber>0434</SerialNumber>
#       <CalibrationDate>13-Apr-19</CalibrationDate>
#       <Use2007Equation>1</Use2007Equation>
#       <CalibrationCoefficients equation="0" >
#         <!-- Coefficients for Owens-Millard equation. -->
#         <Boc>0.0000</Boc>
#         <Soc>0.0000e+000</Soc>
#         <offset>0.0000</offset>
#         <Pcor>0.00e+000</Pcor>
#         <Tcor>0.0000</Tcor>
#         <Tau>0.0</Tau>
#       </CalibrationCoefficients>
#       <CalibrationCoefficients equation="1" >
#         <!-- Coefficients for Sea-Bird equation - SBE calibration in 2007 and later. -->
#         <Soc>4.2007e-001</Soc>
#         <offset>-0.6109</offset>
#         <A>-4.3656e-003</A>
#         <B> 1.7017e-004</B>
#         <C>-2.5341e-006</C>
#         <D0> 2.5826e+000</D0>
#         <D1> 1.92634e-004</D1>
#         <D2>-4.64803e-002</D2>
#         <E> 3.6000e-002</E>
#         <Tau20> 1.1800</Tau20>
#         <H1>-3.3000e-002</H1>
#         <H2> 5.0000e+003</H2>
#         <H3> 1.4500e+003</H3>
#       </CalibrationCoefficients>
#     </OxygenSensor>
#   </sensor>
#   <sensor Channel="5" >
#     <!-- A/D voltage 1, PAR/Logarithmic, Satlantic -->
#     <PARLog_SatlanticSensor SensorID="76" >
#       <SerialNumber>1122</SerialNumber>
#       <CalibrationDate>08-May-2019</CalibrationDate>
#       <a0>9.7456e-001</a0>
#       <a1>8.1640e-001</a1>
#       <Im>1.3589e+000</Im>
#       <Multiplier>1.0000e+000</Multiplier>
#     </PARLog_SatlanticSensor>
#   </sensor>
#   <sensor Channel="6" >
#     <!-- A/D voltage 2, pH -->
#     <pH_Sensor SensorID="43" >
#       <SerialNumber>0363</SerialNumber>
#       <CalibrationDate>15-Apr-19</CalibrationDate>
#       <Slope>4.5952</Slope>
#       <Offset>2.5370</Offset>
#     </pH_Sensor>
#   </sensor>
#   <sensor Channel="7" >
#     <!-- A/D voltage 3, Oxidation Reduction Potential -->
#     <OxidationReductionPotentialSensor SensorID="41" >
#       <SerialNumber>0363</SerialNumber>
#       <CalibrationDate>15-Apr-19</CalibrationDate>
#       <B>2.499480</B>
#       <M>-0.496195</M>
#       <Offset>0.0</Offset>
#     </OxidationReductionPotentialSensor>
#   </sensor>
#   <sensor Channel="8" >
#     <!-- A/D voltage 4, Fluorometer, WET Labs ECO-AFL/FL -->
#     <FluoroWetlabECO_AFL_FL_Sensor SensorID="20" >
#       <SerialNumber>FLNTURT-2496</SerialNumber>
#       <CalibrationDate>08-May-2019</CalibrationDate>
#       <ScaleFactor>5.00000000e+001</ScaleFactor>
#       <!-- Dark output -->
#       <Vblank>0.0550</Vblank>
#     </FluoroWetlabECO_AFL_FL_Sensor>
#   </sensor>
#   <sensor Channel="9" >
#     <!-- A/D voltage 5, Turbidity Meter, WET Labs, ECO-NTU -->
#     <TurbidityMeter SensorID="67" >
#       <SerialNumber>FLNTURT-2496</SerialNumber>
#       <CalibrationDate>08-May-2019</CalibrationDate>
#       <ScaleFactor>189.000000</ScaleFactor>
#       <!-- Dark output -->
#       <DarkVoltage>0.071000</DarkVoltage>
#     </TurbidityMeter>
#   </sensor>
# </Sensors>
# datcnv_date = Jun 13 2019 10:53:57, 7.26.7.129 [datcnv_vars = 15]
# datcnv_in = C:\DATA\061319_bvr50_0001.hex C:\DATA\SBE19plusV2_7809.xmlcon
# datcnv_skipover = 0
# datcnv_ox_hysteresis_correction = yes
# datcnv_ox_tau_correction = yes
# filter_date = Jun 13 2019 10:54:32, 7.26.7.129
# filter_in = C:\DATA\061319_bvr50_0001.cnv
# filter_low_pass_tc_A = 0.030
# filter_low_pass_tc_B = 0.150
# filter_low_pass_A_vars = prdM prdE tv290C density00
# filter_low_pass_B_vars = depFM dz/dtM sbeox0Mg/L sbeox0PS specc c0uS/cm flECO-AFL ph orp par/sat/log turbWETntu0
# alignctd_date = Jun 13 2019 10:54:55, 7.26.7.129
# alignctd_in = C:\DATA\061319_bvr50_0001.cnv
# alignctd_adv = dz/dtM 1.000, sbeox0Mg/L 1.000, sbeox0PS 1.000, specc 1.000, c0uS/cm 1.000, flECO-AFL 1.000, ph 1.000, orp 1.000, turbWETntu0 1.000                                                                                 
# file_type = ascii
*END*
     -0.743 -6.701e-19     8.6578     95.819      0.863   0.782375    -0.1403      7.420 -1240.7455 1.6787e+03    -0.5371     -0.728     -1.056    20.3296   998.1411 0.0000e+00
     -0.743 2.4167e-17     8.6578     95.811      0.862   0.781118    -0.1440      7.420 -1240.7455 1.7158e+03    -0.5239     -0.728     -1.056    20.3276   998.1416 0.0000e+00
     -0.743 2.6870e-16     8.6579     95.805      0.835   0.756916    -0.1431      7.415 -1240.7455 1.7780e+03    -0.4755     -0.728     -1.056    20.3238   998.1423 0.0000e+00
     -0.743 2.9560e-15     8.6594     95.807      0.820   0.743197    -0.1376      7.413 -1240.7455 1.8255e+03    -0.4435     -0.728     -1.056    20.3178   998.1436 0.0000e+00
     -0.743 3.2516e-14     8.6610     95.805      0.819   0.741958    -0.1475      7.413 -1240.7455 1.8098e+03    -0.4660     -0.728     -1.056    20.3119   998.1448 0.0000e+00
     -0.742 3.5768e-13     8.6626     95.799      0.819   0.741934    -0.1584      7.413 -1240.7455 1.7494e+03    -0.4845     -0.728     -1.056    20.3091   998.1453 0.0000e+00
     -0.742 3.9345e-12     8.6647     95.796      0.820   0.742910    -0.1565      7.414 -1240.7455 1.6923e+03    -0.4709     -0.728     -1.056    20.3064   998.1459 0.0000e+00
     -0.742 4.3279e-11     8.6667     95.793      0.833   0.753763    -0.1508      7.415 -1240.7455 1.6413e+03    -0.4321     -0.728     -1.056    20.2985   998.1476 0.0000e+00
     -0.742 4.7607e-10     8.6687     95.789      0.825   0.746432    -0.1413      7.416 -1240.7455 1.5818e+03    -0.4094     -0.728     -1.056    20.2874   998.1500 0.0000e+00
     -0.742 5.2368e-09     8.6720     95.799      0.794   0.717633    -0.1283      7.417 -1240.7455 1.5302e+03    -0.4259     -0.728     -1.056    20.2753   998.1525 0.0000e+00
     -0.742 5.7604e-08     8.6766     95.823      0.799   0.722356    -0.1235      7.417 -1240.7455 1.5119e+03    -0.4347     -0.728     -1.056    20.2611   998.1555 0.0000e+00
     -0.742 6.3365e-07     8.6790     95.827      0.819   0.740176    -0.1263      7.414 -1240.7455 1.5335e+03    -0.4497     -0.728     -1.056    20.2466   998.1585 0.0000e+00
     -0.743      0.000     8.6797     95.815      0.822   0.743013    -0.1192      7.399 -1240.7453 1.5837e+03    -0.4771     -0.728     -1.056    20.2335   998.1612 0.0000e+00
     -0.743      0.000     8.6813     95.817      0.837   0.756659    -0.1076      7.274 -1240.7430 1.6357e+03    -0.5027     -0.728     -1.056    20.2196   998.1641 0.0000e+00
     -0.742      0.001     8.6817     95.814      0.862   0.778453    -0.0550      6.039 -1240.7180 1.6789e+03    -0.5955     -0.728     -1.056    20.2049   998.1671 0.0000e+00
     -0.742      0.004     8.6732     95.804      0.832   0.753078     0.6035      3.728 -1240.4427 1.7232e+03    -1.5998     -0.728     -1.056    20.1920   998.1698 0.0000e+00
     -0.742      0.012     8.6401     95.794      0.980   0.893367     1.8195      3.009 -1237.4146 1.7803e+03    -3.4697     -0.728     -1.056    20.1825   998.1719 0.0000e+00
     -0.742      0.023     8.5800     95.770      2.481   2.284597     2.4755      4.474 -1204.1058 1.8398e+03    -4.4906     -0.728     -1.056    20.1731   998.1738 0.0000e+00
     -0.739      0.033     8.5185     95.735      6.871   6.358518     2.5095      6.042  -837.7093 1.8789e+03    -4.5051     -0.728     -1.056    20.1657   998.1753 0.0000e+00
     -0.728      0.043     8.4753     95.718     12.312  11.427567     2.2302      6.931    61.8579 1.8834e+03    -3.5140     -0.717     -1.039    20.1570   998.1772 0.0000e+00
     -0.709      0.052     8.4474     95.716     15.664  14.578385     1.6994      7.457   903.1044 1.8420e+03    -1.6182     -0.694     -1.007    20.3272   998.1418 0.0000e+00
     -0.690      0.060     8.4291     95.715     19.521  18.210781     1.4068      7.874  1187.3620 1.7721e+03    -0.5579     -0.674     -0.977    20.7562   998.0510 0.0000e+00
     -0.675      0.066     8.4188     95.720     24.967  23.320561     1.3710      8.324   991.0058 1.7158e+03    -0.4607     -0.662     -0.959    21.1420   997.9687 0.0000e+00
     -0.661      0.070     8.4129     95.730     27.886  26.066315     1.3181      8.771   581.0153 1.7088e+03    -0.3113     -0.651     -0.944    21.3700   997.9209 0.0000e+00
     -0.644      0.075     8.4074     95.733     28.244  26.419984     0.7853      9.130   351.0518 1.7540e+03     1.3137     -0.632     -0.917    21.5316   997.8854 0.0000e+00
     -0.625      0.080     8.4021     95.733     28.194  26.391404    -0.1985      9.407   321.1654 1.8109e+03     4.2767     -0.612     -0.889    21.6431   997.8615 0.0000e+00
     -0.603      0.085     8.3966     95.741     27.996  26.228316    -0.7362      9.637   310.0026 1.8479e+03     5.8873     -0.594     -0.863    21.6973   997.8523 0.0000e+00
     -0.577      0.088     8.3892     95.748     27.760  26.034129    -0.7662      9.808   302.4668 1.8709e+03     5.9740     -0.566     -0.822    21.7305   997.8455 0.0000e+00
     -0.551      0.088     8.3833     95.776     27.636  25.946739    -0.5609      9.913   297.0755 1.8887e+03     5.1288     -0.539     -0.781    21.7683   997.8370 0.0000e+00
     -0.530      0.084     8.3821     95.846     27.663  25.996441    -0.1787      9.968   293.0855 1.7998e+03     3.5011     -0.521     -0.754    21.7957   997.8310 0.0000e+00
     -0.509      0.077     8.3851     95.946     27.714  26.064157     0.0321      9.998   289.3276 1.6490e+03     2.5805     -0.499     -0.724    21.8318   997.8228 0.0000e+00
     -0.488      0.070     8.3917     96.070     27.635  26.004240     0.0538     10.037   285.7965 1.7013e+03     2.4530     -0.477     -0.692    21.8860   997.8107 0.0000e+00
     -0.472      0.064     8.4001     96.197     27.521  25.906401     0.0924     10.094   283.0001 1.8783e+03     2.1235     -0.462     -0.669    21.9404   997.7984 0.0000e+00
     -0.459      0.060     8.4100     96.321     27.507  25.896230     0.1777     10.139   281.0702 1.9380e+03     1.5131     -0.450     -0.652    21.9860   997.7881 0.0000e+00
     -0.447      0.055     8.4232     96.462     27.562  25.944706     0.2355     10.149   278.8097 1.8535e+03     1.1687     -0.439     -0.637    22.0218   997.7801 0.0000e+00
     -0.434      0.050     8.4369     96.604     27.676  26.048442     0.2450     10.134   275.2864 1.6459e+03     1.1061     -0.427     -0.621    22.0469   997.7744 0.0000e+00
     -0.418      0.046     8.4483     96.729     27.771  26.135463     0.2491     10.119   272.3690 1.3331e+03     1.0505     -0.409     -0.594    22.0652   997.7702 0.0000e+00
     -0.405      0.043     8.4576     96.831     27.811  26.172160     0.2514     10.119   270.9822 1.0391e+03     1.0530     -0.394     -0.572    22.0718   997.7688 0.0000e+00
     -0.396      0.038     8.4643     96.902     27.883  26.238381     0.2463     10.137   269.5319 9.1671e+02     1.1049     -0.387     -0.562    22.0615   997.7712 0.0000e+00
     -0.389      0.031     8.4695     96.955     27.953  26.301727     0.2480     10.167   267.5680 9.6504e+02     1.1527     -0.381     -0.553    22.0512   997.7736 0.0000e+00
     -0.381      0.023     8.4743     97.004     27.957  26.303659     0.2549     10.202   265.8213 1.0804e+03     1.1721     -0.374     -0.542    22.0503   997.7740 0.0000e+00
     -0.375      0.015     8.4769     97.029     27.913  26.261739     0.2516     10.227   264.2432 1.1124e+03     1.1435     -0.367     -0.532    22.0488   997.7743 0.0000e+00
     -0.370      0.008     8.4769     97.027     27.822  26.175524     0.2513     10.240   263.2860 1.0447e+03     1.1018     -0.361     -0.524    22.0448   997.7752 0.0000e+00
     -0.370      0.003     8.4759     97.012     27.661  26.022511     0.2596     10.248   263.2825 1.0256e+03     1.0938     -0.361     -0.524    22.0416   997.7760 0.0000e+00
     -0.374     -0.001     8.4741     96.983     27.367  25.743907     0.2572     10.253   263.2536 1.0925e+03     1.1114     -0.368     -0.533    22.0382   997.7767 0.0000e+00
     -0.377     -0.003     8.4711     96.943     27.011  25.407927     0.2481     10.258   262.8512 1.2055e+03     1.1194     -0.370     -0.538    22.0350   997.7774 0.0000e+00
     -0.379     -0.002     8.4657     96.884     26.785  25.195545     0.2454     10.261   262.5471 1.3344e+03     1.0909     -0.371     -0.538    22.0351   997.7773 0.0000e+00
     -0.379      0.000     8.4574     96.796     26.726  25.142581     0.2499     10.262   262.2440 1.3922e+03     1.0621     -0.372     -0.540    22.0344   997.7775 0.0000e+00
     -0.377      0.004     8.4478     96.696     26.730  25.148165     0.2594     10.259   261.6813 1.3427e+03     1.0669     -0.371     -0.538    22.0285   997.7787 0.0000e+00
     -0.374      0.006     8.4382     96.597     26.714  25.136193     0.2557     10.252   260.8203 1.2583e+03     1.0497     -0.367     -0.532    22.0243   997.7795 0.0000e+00
     -0.372      0.007     8.4326     96.542     26.699  25.124703     0.2397     10.246   259.5763 1.2062e+03     1.0514     -0.365     -0.529    22.0267   997.7790 0.0000e+00
     -0.372      0.008     8.4317     96.539     26.709  25.136121     0.2309     10.241   257.9977 1.1857e+03     1.1201     -0.364     -0.529    22.0308   997.7780 0.0000e+00
     -0.370      0.010     8.4324     96.556     26.718  25.147379     0.2369     10.239   256.1886 1.1804e+03     1.1588     -0.363     -0.527    22.0358   997.7769 0.0000e+00
     -0.367      0.014     8.4434     96.695     26.700  25.133947     0.2504     10.238   254.2224 1.1816e+03     1.1598     -0.361     -0.523    22.0426   997.7754 0.0000e+00
     -0.364      0.020     8.4754     97.072     26.662  25.100591     0.2556     10.241   252.4654 1.1144e+03     1.1640     -0.358     -0.519    22.0476   997.7742 0.0000e+00
     -0.360      0.027     8.5033     97.400     26.617  25.061261     0.2566     10.243   251.1190 9.7497e+02     1.1441     -0.354     -0.514    22.0513   997.7734 0.0000e+00
     -0.353      0.034     8.4733     97.065     26.591  25.039037     0.2630     10.236   250.2469 8.9998e+02     1.1490     -0.348     -0.505    22.0557   997.7725 0.0000e+00
     -0.343      0.040     8.3603     95.778     26.571  25.022197     0.2632     10.216   249.8368 9.8496e+02     1.1580     -0.337     -0.489    22.0623   997.7710 0.0000e+00
     -0.329      0.045     8.1761     93.678     26.528  24.984527     0.2512     10.191   249.4298 1.2380e+03     1.1215     -0.324     -0.469    22.0687   997.7696 0.0000e+00
     -0.314      0.045     7.9435     91.023     26.503  24.964189     0.2383     10.168   249.1115 1.5458e+03     1.1009     -0.309     -0.447    22.0738   997.7685 0.0000e+00
     -0.300      0.041     7.6924     88.152     26.503  24.966611     0.2287     10.153   249.1719 1.7222e+03     1.1058     -0.293     -0.426    22.0774   997.7678 0.0000e+00
     -0.289      0.034     7.4521     85.401     26.484  24.950371     0.2310     10.148   249.3860 1.7076e+03     1.1150     -0.283     -0.410    22.0805   997.7671 0.0000e+00
     -0.281      0.026     7.2414     82.988     26.492  24.958138     0.2401     10.147   249.5489 1.6165e+03     1.1131     -0.274     -0.398    22.0875   997.7655 0.0000e+00
     -0.277      0.018     7.0753     81.082     26.534  24.997087     0.2430     10.143   249.5065 1.5696e+03     1.1168     -0.271     -0.393    22.0941   997.7640 0.0000e+00
     -0.277      0.011     6.9648     79.812     26.582  25.040685     0.2487     10.135   249.1321 1.5691e+03     1.1596     -0.272     -0.395    22.0977   997.7632 0.0000e+00
     -0.276      0.006     6.9054     79.130     26.583  25.041223     0.2487     10.124   248.7213 1.5778e+03     1.1721     -0.270     -0.393    22.0989   997.7629 0.0000e+00
     -0.274      0.002     6.8744     78.779     26.474  24.940153     0.2257     10.115   248.6688 1.5704e+03     1.1359     -0.268     -0.389    22.0995   997.7628 0.0000e+00
     -0.273      0.000     6.8500     78.506     26.358  24.833643     0.1959     10.110   248.7553 1.5427e+03     1.1154     -0.267     -0.387    22.0990   997.7630 0.0000e+00
     -0.273     -0.001     6.8257     78.232     26.288  24.768397     0.1833     10.106   248.7355 1.5366e+03     1.0874     -0.268     -0.388    22.0942   997.7640 0.0000e+00
     -0.274     -0.002     6.7976     77.913     26.238  24.722182     0.1867     10.104   248.7730 1.5606e+03     1.0597     -0.269     -0.391    22.0931   997.7643 0.0000e+00
     -0.276     -0.004     6.7591     77.473     26.234  24.718916     0.2109     10.103   248.8651 1.5731e+03     1.0757     -0.271     -0.393    22.0975   997.7632 0.0000e+00
     -0.277     -0.004     6.7086     76.894     26.245  24.728904     0.2413     10.101   248.7308 1.5670e+03     1.1175     -0.271     -0.393    22.1021   997.7621 0.0000e+00
     -0.278     -0.004     6.6501     76.223     26.231  24.716084     0.2503     10.098   248.4394 1.5659e+03     1.1387     -0.272     -0.394    22.1057   997.7613 0.0000e+00
     -0.279     -0.003     6.5923     75.562     26.204  24.690778     0.2499     10.093   248.3531 1.5716e+03     1.1355     -0.273     -0.396    22.1074   997.7609 0.0000e+00
     -0.281     -0.002     6.5485     75.061     26.189  24.676670     0.2454     10.088   248.2894 1.5659e+03     1.1111     -0.276     -0.399    22.1071   997.7610 0.0000e+00
     -0.282     -0.001     6.5350     74.904     26.184  24.672371     0.2400     10.083   248.0994 1.5466e+03     1.0738     -0.278     -0.403    22.1069   997.7610 0.0000e+00
     -0.281      0.002     6.5628     75.223     26.149  24.638810     0.2453     10.079   247.8626 1.5296e+03     1.0783     -0.277     -0.401    22.1076   997.7608 0.0000e+00
     -0.280      0.005     6.6280     75.972     26.095  24.588053     0.2478     10.077   247.5778 1.5230e+03     1.0998     -0.274     -0.397    22.1084   997.7606 0.0000e+00
     -0.278      0.009     6.7158     76.979     26.071  24.566152     0.2360     10.081   247.1506 1.5339e+03     1.0383     -0.273     -0.396    22.1083   997.7606 0.0000e+00
     -0.277      0.014     6.8128     78.091     26.069  24.564314     0.2333     10.092   246.3121 1.5598e+03     0.9238     -0.273     -0.396    22.1076   997.7608 0.0000e+00
     -0.273      0.019     6.9099     79.206     26.070  24.565839     0.2495     10.106   245.5275 1.5409e+03     0.8638     -0.269     -0.390    22.1076   997.7608 0.0000e+00
     -0.268      0.027     6.9983     80.218     26.090  24.584582     0.2579     10.111   245.2352 1.3411e+03     0.8692     -0.263     -0.381    22.1083   997.7607 0.0000e+00
     -0.262      0.035     7.0659     80.990     26.108  24.600634     0.2576     10.094   244.9279 9.5755e+02     0.9565     -0.257     -0.373    22.1087   997.7606 0.0000e+00
     -0.253      0.039     7.1056     81.442     26.076  24.569609     0.2545     10.070   244.3939 6.6475e+02     1.0671     -0.250     -0.362    22.1092   997.7605 0.0000e+00
     -0.238      0.037     7.1197     81.603     26.030  24.526635     0.2467     10.068   244.1131 6.5648e+02     1.0926     -0.235     -0.341    22.1101   997.7604 0.0000e+00
     -0.221      0.032     7.1131     81.526     26.029  24.525090     0.2502     10.080   244.1999 8.0438e+02     1.0996     -0.215     -0.312    22.1098   997.7606 0.0000e+00
     -0.208      0.024     7.0944     81.309     26.058  24.550921     0.2526     10.084   244.3252 8.1371e+02     1.1195     -0.200     -0.289    22.1077   997.7612 0.0000e+00
     -0.207      0.017     7.0764     81.099     26.096  24.585211     0.2236     10.078   244.4237 6.1850e+02     1.1045     -0.199     -0.289    22.1055   997.7616 0.0000e+00
     -0.213      0.011     7.0650     80.966     26.136  24.622507     0.1856     10.063   244.6158 4.6912e+02     1.0818     -0.210     -0.305    22.1058   997.7615 0.0000e+00
     -0.216      0.006     7.0579     80.883     26.136  24.621257     0.1744     10.046   244.7558 4.9280e+02     1.0751     -0.215     -0.311    22.1060   997.7614 0.0000e+00
     -0.212      0.003     7.0531     80.829     26.081  24.570099     0.1834     10.037   244.6538 6.6196e+02     1.0881     -0.209     -0.304    22.1028   997.7622 0.0000e+00
     -0.207      0.003     7.0507     80.804     26.017  24.511442     0.1915     10.035   244.4142 9.6666e+02     1.1084     -0.202     -0.293    22.1003   997.7628 0.0000e+00
     -0.203      0.004     7.0492     80.791     25.986  24.482953     0.1854     10.033   244.3540 1.3582e+03     1.1236     -0.198     -0.286    22.0985   997.7632 0.0000e+00
     -0.203      0.004     7.0452     80.748     25.981  24.479384     0.1784     10.030   244.5278 1.5743e+03     1.1410     -0.197     -0.286    22.0973   997.7636 0.0000e+00
     -0.207      0.003     7.0300     80.574     25.969  24.468292     0.1853     10.027   244.4507 1.4167e+03     1.1553     -0.203     -0.294    22.0988   997.7631 0.0000e+00
     -0.209      0.001     6.9953     80.175     25.978  24.475707     0.2078     10.025   244.1959 1.0267e+03     1.1651     -0.207     -0.301    22.1012   997.7625 0.0000e+00
     -0.208      0.000     6.9432     79.575     26.010  24.505593     0.2338     10.020   244.2874 6.3561e+02     1.1603     -0.205     -0.299    22.1037   997.7619 0.0000e+00
     -0.204      0.002     6.8820     78.871     26.018  24.512474     0.2402     10.012   244.6964 4.6678e+02     1.1311     -0.199     -0.289    22.1049   997.7617 0.0000e+00
     -0.201      0.005     6.8199     78.159     26.001  24.495466     0.2418     10.002   245.0962 5.3048e+02     1.1396     -0.195     -0.282    22.1059   997.7616 0.0000e+00
     -0.204      0.009     6.7652     77.530     25.996  24.490256     0.2531      9.988   245.0780 6.5423e+02     1.1645     -0.200     -0.290    22.1056   997.7615 0.0000e+00
     -0.206      0.010     6.7220     77.032     26.088  24.576357     0.2548      9.972   244.6484 7.0128e+02     1.1379     -0.205     -0.297    22.1018   997.7624 0.0000e+00
     -0.202      0.007     6.6853     76.610     26.233  24.711850     0.2449      9.963   244.2046 6.2368e+02     1.1124     -0.199     -0.289    22.0997   997.7629 0.0000e+00
     -0.195      0.002     6.6502     76.206     26.255  24.732915     0.2378      9.960   243.9276 5.1727e+02     1.1182     -0.192     -0.278    22.1006   997.7627 0.0000e+00
     -0.187     -0.004     6.6172     75.823     26.160  24.640741     0.2207      9.956   243.8799 5.2487e+02     1.1429     -0.182     -0.265    22.0996   997.7630 0.0000e+00
     -0.186     -0.013     6.5907     75.512     26.065  24.548902     0.1946      9.948   243.8865 5.7171e+02     1.1488     -0.176     -0.256    22.0968   997.7637 0.0000e+00
     -0.197     -0.024     6.5742     75.317     26.027  24.510585     0.1822      9.939   243.8354 5.2631e+02     1.1238     -0.191     -0.277    22.0955   997.7640 0.0000e+00
     -0.212     -0.035     6.5689     75.250     26.012  24.494627     0.1835      9.931   243.8646 5.8155e+02     1.1355     -0.212     -0.308    22.0964   997.7637 0.0000e+00
     -0.222     -0.043     6.5700     75.259     26.001  24.482828     0.1932      9.926   243.8953 9.6729e+02     1.1597     -0.219     -0.318    22.0927   997.7645 0.0000e+00
     -0.230     -0.046     6.5678     75.232     26.014  24.494791     0.1952      9.922   243.9480 1.4782e+03     1.1208     -0.222     -0.322    22.0850   997.7661 0.0000e+00
     -0.243     -0.044     6.5560     75.097     26.033  24.512404     0.1821      9.918   243.9856 1.7156e+03     1.0586     -0.237     -0.344    22.0818   997.7668 0.0000e+00
     -0.259     -0.039     6.5322     74.822     26.026  24.505474     0.1739      9.914   244.0056 1.7245e+03     1.0310     -0.256     -0.370    22.0793   997.7673 0.0000e+00
     -0.271     -0.033     6.4947     74.392     25.993  24.474437     0.1823      9.909   244.2763 1.6865e+03     1.0495     -0.266     -0.385    22.0750   997.7682 0.0000e+00
     -0.279     -0.026     6.4461     73.835     25.972  24.454316     0.2222      9.902   244.5049 1.5725e+03     1.0196     -0.274     -0.398    22.0744   997.7683 0.0000e+00
     -0.284     -0.017     6.3905     73.197     25.971  24.452493     0.2751      9.893   244.4468 1.2872e+03     0.8982     -0.280     -0.406    22.0750   997.7681 0.0000e+00
     -0.284     -0.009     6.3317     72.522     25.971  24.452402     0.2941      9.882   244.3478 8.7311e+02     0.8605     -0.279     -0.405    22.0733   997.7686 0.0000e+00
     -0.282     -0.003     6.2742     71.863     25.973  24.453212     0.2952      9.871   244.1684 6.4825e+02     0.9238     -0.276     -0.400    22.0724   997.7688 0.0000e+00
     -0.281      0.004     6.2229     71.274     25.983  24.462292     0.2879      9.858   243.9987 6.2760e+02     1.0078     -0.274     -0.398    22.0722   997.7687 0.0000e+00
     -0.282      0.010     6.1829     70.813     26.023  24.498745     0.2585      9.843   244.0171 5.7230e+02     1.0895     -0.275     -0.399    22.0709   997.7691 0.0000e+00
     -0.284      0.011     6.1594     70.538     26.108  24.576784     0.2340      9.831   244.1331 4.8033e+02     1.0920     -0.281     -0.408    22.0704   997.7692 0.0000e+00
     -0.280      0.007     6.1507     70.431     26.183  24.644633     0.2354      9.825   244.2819 4.6602e+02     1.0719     -0.280     -0.406    22.0688   997.7695 0.0000e+00
     -0.268      0.000     6.1551     70.466     26.164  24.621313     0.2312      9.821   244.3539 5.3429e+02     1.1083     -0.261     -0.380    22.0697   997.7694 0.0000e+00
     -0.258     -0.005     6.1710     70.632     26.094  24.548568     0.2010      9.815   244.4015 6.0079e+02     1.1392     -0.245     -0.356    22.0670   997.7701 0.0000e+00
     -0.265     -0.006     6.1900     70.839     26.074  24.526283     0.1817      9.809   244.4274 7.2315e+02     1.1176     -0.255     -0.370    22.0621   997.7712 0.0000e+00
     -0.283     -0.005     6.2058     71.013     26.094  24.542158     0.1807      9.799   244.3222 7.7496e+02     1.0766     -0.282     -0.409    22.0609   997.7714 0.0000e+00
     -0.294      0.000     6.2174     71.141     26.104  24.550211     0.1974      9.788   244.4206 6.0228e+02     1.0691     -0.296     -0.428    22.0465   997.7747 0.0000e+00
     -0.292      0.010     6.2215     71.184     26.117  24.560215     0.2362      9.776   244.8429 5.9770e+02     1.1253     -0.290     -0.419    22.0317   997.7779 0.0000e+00
     -0.281      0.022     6.2152     71.110     26.160  24.599678     0.2511      9.764   245.1267 1.0927e+03     1.1665     -0.275     -0.399    22.0254   997.7794 0.0000e+00
     -0.267      0.032     6.1975     70.905     26.210  24.646734     0.2386      9.754   245.0986 1.7132e+03     1.1411     -0.262     -0.380    22.0216   997.7804 0.0000e+00
     -0.254      0.036     6.1675     70.557     26.185  24.621690     0.2404      9.745   244.9328 1.9885e+03     1.1134     -0.249     -0.360    22.0182   997.7813 0.0000e+00
     -0.242      0.036     6.1291     70.104     26.115  24.550619     0.2297      9.735   244.7571 1.9796e+03     1.0941     -0.235     -0.341    22.0140   997.7823 0.0000e+00
     -0.237      0.037     6.0870     69.608     26.120  24.548629     0.1878      9.720   244.6945 1.8232e+03     1.0715     -0.230     -0.334    22.0127   997.7826 0.0000e+00
     -0.235      0.039     6.0413     69.078     26.175  24.597610     0.1676      9.702   244.7780 1.5744e+03     1.0688     -0.232     -0.337    22.0126   997.7827 0.0000e+00
     -0.228      0.039     5.9940     68.535     26.216  24.635356     0.1765      9.691   244.8206 1.3800e+03     1.0946     -0.227     -0.330    22.0111   997.7830 0.0000e+00
     -0.212      0.033     5.9506     68.032     26.275  24.687836     0.1997      9.688   244.7792 1.1618e+03     1.1211     -0.209     -0.303    22.0003   997.7855 0.0000e+00
     -0.194      0.021     5.9134     67.579     26.326  24.724662     0.2309      9.688   244.8787 8.4879e+02     1.0945     -0.188     -0.272    21.9840   997.7893 0.0000e+00
     -0.181      0.006     5.8861     67.211     26.324  24.700002     0.2418      9.686   245.0778 6.9755e+02     1.0348     -0.174     -0.252    21.9800   997.7903 0.0000e+00
     -0.180     -0.008     5.8769     67.051     26.288  24.643382     0.2451      9.677   245.2087 8.2707e+02     1.0219     -0.169     -0.245    21.9802   997.7902 0.0000e+00
     -0.196     -0.016     5.8919     67.197     26.263  24.610947     0.2535      9.664   245.3418 1.0916e+03     1.0367     -0.186     -0.269    21.9798   997.7903 0.0000e+00
     -0.220     -0.019     5.9351     67.694     26.277  24.625000     0.2559      9.652   245.4830 1.2944e+03     1.0499     -0.222     -0.321    21.9667   997.7932 0.0000e+00
     -0.232     -0.014     6.0061     68.518     26.269  24.622988     0.2574      9.640   245.6253 1.2987e+03     1.0835     -0.236     -0.341    21.9097   997.8060 0.0000e+00
     -0.227     -0.004     6.0935     69.528     26.224  24.586631     0.2539      9.628   245.7715 1.1386e+03     1.1159     -0.223     -0.323    21.8545   997.8185 0.0000e+00
     -0.216      0.009     6.1838     70.568     26.198  24.566026     0.2484      9.618   245.8735 9.8009e+02     1.1462     -0.210     -0.304    21.8410   997.8216 0.0000e+00
     -0.208      0.019     6.2634     71.488     26.192  24.564167     0.2428      9.606   245.9993 9.2952e+02     1.1547     -0.201     -0.291    21.8492   997.8198 0.0000e+00
     -0.203      0.021     6.3202     72.146     26.188  24.564167     0.2381      9.594   246.1735 9.4667e+02     1.1202     -0.199     -0.288    21.8639   997.8164 0.0000e+00
     -0.200      0.017     6.3473     72.463     26.187  24.566022     0.2443      9.583   246.3450 9.4962e+02     1.1227     -0.197     -0.285    21.8737   997.8143 0.0000e+00
     -0.196      0.012     6.3425     72.412     26.207  24.586610     0.2658      9.573   246.4387 8.6878e+02     1.1523     -0.191     -0.277    21.8797   997.8129 0.0000e+00
     -0.193      0.009     6.3085     72.026     26.244  24.622783     0.2978      9.563   246.5322 7.2619e+02     1.1502     -0.188     -0.273    21.8875   997.8111 0.0000e+00
     -0.192      0.008     6.2533     71.398     26.244  24.622773     0.3190      9.554   246.7869 6.1340e+02     1.1300     -0.188     -0.273    21.8961   997.8092 0.0000e+00
     -0.191      0.008     6.1885     70.658     26.205  24.586497     0.3231      9.547   247.0228 6.0768e+02     1.1044     -0.188     -0.273    21.9013   997.8080 0.0000e+00
     -0.189      0.008     6.1226     69.905     26.182  24.564778     0.3212      9.541   246.9753 8.1012e+02     1.1029     -0.186     -0.269    21.9031   997.8076 0.0000e+00
     -0.187      0.010     6.0580     69.169     26.167  24.550480     0.3135      9.535   246.8147 1.1686e+03     1.1129     -0.184     -0.267    21.9052   997.8072 0.0000e+00
     -0.186      0.012     5.9984     68.489     26.155  24.540491     0.3070      9.525   246.8879 1.3995e+03     1.1268     -0.183     -0.265    21.9064   997.8069 0.0000e+00
     -0.182      0.013     5.9458     67.891     26.187  24.570874     0.3128      9.514   247.0869 1.3785e+03     1.1403     -0.180     -0.260    21.9058   997.8070 0.0000e+00
     -0.177      0.012     5.8987     67.352     26.219  24.600666     0.3148      9.506   247.1553 1.2301e+03     1.1108     -0.175     -0.253    21.9054   997.8072 0.0000e+00
     -0.172      0.012     5.8567     66.869     26.201  24.583522     0.3130      9.500   247.1988 1.1139e+03     1.0985     -0.168     -0.243    21.9056   997.8071 0.0000e+00
     -0.168      0.012     5.8174     66.419     26.171  24.553887     0.3171      9.495   247.2687 1.0578e+03     1.1225     -0.163     -0.236    21.9073   997.8067 0.0000e+00
     -0.168      0.011     5.7795     65.987     26.177  24.559534     0.3133      9.492   247.3119 9.4695e+02     1.1058     -0.164     -0.239    21.9092   997.8064 0.0000e+00
     -0.168      0.008     5.7450     65.593     26.208  24.588359     0.3098      9.492   247.3767 8.3386e+02     1.0931     -0.167     -0.242    21.9083   997.8066 0.0000e+00
     -0.165      0.004     5.7122     65.218     26.205  24.585238     0.3185      9.491   247.4505 7.7965e+02     1.0677     -0.162     -0.235    21.9057   997.8072 0.0000e+00
     -0.160      0.003     5.6786     64.834     26.205  24.585228     0.3234      9.487   247.4297 7.9291e+02     0.9625     -0.154     -0.225    21.9050   997.8073 0.0000e+00
     -0.159      0.003     5.6442     64.439     26.209  24.588247     0.3168      9.479   247.3833 9.4932e+02     0.8703     -0.155     -0.225    21.9060   997.8071 0.0000e+00
     -0.163      0.004     5.6105     64.050     26.179  24.558293     0.3079      9.462   247.5780 1.0818e+03     0.8370     -0.160     -0.232    21.9059   997.8071 0.0000e+00
     -0.166      0.004     5.5794     63.693     26.162  24.540229     0.2856      9.437   247.8049 1.0689e+03     0.8550     -0.164     -0.238    21.9051   997.8073 0.0000e+00
     -0.166      0.004     5.5508     63.363     26.183  24.560144     0.2555      9.419   247.7169 8.8054e+02     0.8924     -0.165     -0.239    21.9047   997.8073 0.0000e+00
     -0.161      0.002     5.5248     63.065     26.236  24.608788     0.2466      9.415   247.6337 5.5268e+02     0.8945     -0.158     -0.230    21.9030   997.8078 0.0000e+00
     -0.154     -0.002     5.5023     62.803     26.251  24.620890     0.2475      9.417   247.8305 3.7743e+02     0.8806     -0.149     -0.217    21.8992   997.8086 0.0000e+00
     -0.152     -0.005     5.4813     62.549     26.214  24.579594     0.2488      9.419   248.0310 4.8900e+02     0.8882     -0.145     -0.211    21.8966   997.8092 0.0000e+00
     -0.157     -0.006     5.4595     62.284     26.194  24.553515     0.2703      9.419   248.1651 7.3174e+02     0.9865     -0.152     -0.220    21.8947   997.8097 0.0000e+00
     -0.168     -0.006     5.4395     62.048     26.204  24.559308     0.3001      9.411   248.4195 8.8640e+02     1.1184     -0.167     -0.241    21.8946   997.8096 0.0000e+00
     -0.175     -0.005     5.4249     61.877     26.234  24.586191     0.3064      9.397   248.6115 9.3296e+02     1.1393     -0.176     -0.255    21.8928   997.8100 0.0000e+00
     -0.173     -0.003     5.4132     61.738     26.278  24.624806     0.3030      9.388   248.6809 1.0582e+03     1.1082     -0.171     -0.247    21.8776   997.8134 0.0000e+00
     -0.165      0.000     5.4009     61.592     26.303  24.645592     0.3102      9.384   248.7425 1.2944e+03     1.1036     -0.161     -0.234    21.8608   997.8173 0.0000e+00
     -0.160      0.001     5.3867     61.427     26.306  24.647205     0.3160      9.382   248.7538 1.3354e+03     1.1166     -0.155     -0.225    21.8564   997.8183 0.0000e+00
     -0.160     -0.000     5.3692     61.222     26.305  24.644302     0.3128      9.379   248.7309 1.1798e+03     1.1010     -0.156     -0.225    21.8551   997.8186 0.0000e+00
     -0.165     -0.003     5.3469     60.959     26.274  24.610497     0.3061      9.375   248.7238 1.0843e+03     1.0457     -0.162     -0.236    21.8486   997.8200 0.0000e+00
     -0.170     -0.006     5.3209     60.651     26.221  24.555642     0.2866      9.371   248.9266 9.2051e+02     1.0383     -0.169     -0.245    21.8429   997.8213 0.0000e+00
     -0.172     -0.007     5.2923     60.317     26.153  24.488528     0.2587      9.367   249.2044 7.2363e+02     1.0773     -0.170     -0.246    21.8412   997.8217 0.0000e+00
     -0.172     -0.008     5.2686     60.055     26.023  24.369928     0.2457      9.363   249.2427 6.6338e+02     1.0905     -0.168     -0.244    21.8385   997.8222 0.0000e+00
     -0.173     -0.011     5.2878     60.319     25.888  24.263479     0.2424      9.362   249.1317 6.4453e+02     1.0667     -0.169     -0.246    21.8302   997.8242 0.0000e+00
     -0.173     -0.019     5.4335     62.063     25.801  24.216435     0.2544      9.364   248.9808 5.9628e+02     1.0847     -0.170     -0.245    21.8186   997.8268 0.0000e+00
     -0.175     -0.029     5.7823     66.134     25.727  24.181784     0.2858      9.363   248.9671 5.3318e+02     1.1444     -0.169     -0.246    21.8104   997.8285 0.0000e+00
     -0.182     -0.037     6.3055     72.186     25.679  24.161733     0.3098      9.359   249.1383 5.0745e+02     1.1662     -0.175     -0.253    21.8072   997.8292 0.0000e+00
     -0.197     -0.041     6.8889     78.907     25.665  24.164343     0.3196      9.354   249.1577 5.8588e+02     1.1507     -0.190     -0.275    21.8444   997.8208 0.0000e+00
     -0.218     -0.040     7.4423     85.266     25.642  24.149928     0.3091      9.348   249.0300 8.1331e+02     1.1215     -0.214     -0.311    21.9277   997.8018 0.0000e+00
     -0.234     -0.035     7.9159     90.703     25.601  24.114310     0.2790      9.337   249.1426 1.0934e+03     1.1090     -0.235     -0.340    22.0002   997.7852 0.0000e+00
     -0.240     -0.030     8.2730     94.808     25.597  24.114294     0.2593      9.325   249.4863 1.2483e+03     1.0970     -0.238     -0.345    22.0483   997.7743 0.0000e+00
     -0.240     -0.033     8.4959     97.374     25.631  24.149743     0.2522      9.320   249.9163 1.3178e+03     1.0754     -0.236     -0.342    22.0778   997.7677 0.0000e+00
     -0.238     -0.048     8.5865     98.422     25.642  24.162324     0.2446      9.322   250.3840 1.4071e+03     1.0771     -0.233     -0.339    22.0868   997.7655 0.0000e+00
     -0.238     -0.076     8.5683     98.227     25.614  24.139556     0.2453      9.323   250.7536 1.3168e+03     1.0518     -0.227     -0.330    22.0894   997.7649 0.0000e+00
     -0.254     -0.108     8.4873     97.322     25.595  24.128191     0.2523      9.320   250.9431 9.1469e+02     0.9660     -0.240     -0.348    22.0980   997.7630 0.0000e+00
     -0.294     -0.132     8.3891     96.217     25.614  24.151795     0.2519      9.313   251.0403 5.2579e+02     0.8917     -0.282     -0.410    22.1061   997.7610 0.0000e+00
     -0.351     -0.140     8.2960     95.161     25.631  24.171225     0.2487      9.300   251.2412 3.7283e+02     0.8744     -0.342     -0.496    22.1081   997.7602 0.0000e+00
     -0.412     -0.128     8.2145     94.231     25.631  24.172823     0.2395      9.282   251.4796 3.4523e+02     1.0520     -0.410     -0.595    22.1149   997.7584 0.0000e+00
     -0.456     -0.099     8.1441     93.425     25.629  24.171111     0.2183      9.264   251.5993 3.3885e+02     1.4010     -0.459     -0.666    22.1298   997.7548 0.0000e+00
     -0.472     -0.059     8.0834     92.730     25.607  24.150523     0.2012      9.250   251.5703 3.5030e+02     1.5865     -0.469     -0.681    22.1429   997.7517 0.0000e+00
     -0.467     -0.015     8.0363     92.191     25.567  24.114195     0.1970      9.238   251.4725 4.0834e+02     1.5906     -0.460     -0.668    22.1484   997.7505 0.0000e+00
     -0.455      0.024     8.0028     91.811     25.564  24.112479     0.2195      9.224   251.2772 4.4494e+02     1.4836     -0.445     -0.645    22.1502   997.7502 0.0000e+00
     -0.442      0.053     7.9798     91.549     25.582  24.129779     0.2736      9.208   250.9297 4.5313e+02     1.2763     -0.432     -0.627    22.1511   997.7500 0.0000e+00
     -0.429      0.070     7.9658     91.385     25.587  24.133069     0.3145      9.186   250.6258 5.4464e+02     1.1483     -0.424     -0.615    22.1517   997.7499 0.0000e+00
     -0.409      0.078     7.9533     91.235     25.610  24.152246     0.3152      9.161   250.3565 6.3276e+02     1.1166     -0.404     -0.587    22.1527   997.7497 0.0000e+00
     -0.382      0.079     7.9378     91.051     25.632  24.171341     0.2899      9.142   250.1693 6.5916e+02     1.1219     -0.375     -0.543    22.1549   997.7493 0.0000e+00
     -0.355      0.076     7.9241     90.891     25.635  24.173644     0.2602      9.132   250.1693 8.2813e+02     1.1474     -0.348     -0.504    22.1564   997.7491 0.0000e+00
     -0.331      0.070     7.9150     90.784     25.643  24.180091     0.2505      9.131   250.1841 1.1945e+03     1.1298     -0.322     -0.467    22.1533   997.7500 0.0000e+00
     -0.316      0.064     7.9108     90.735     25.649  24.185857     0.2513      9.133   250.1751 1.5358e+03     1.0727     -0.307     -0.444    22.1489   997.7511 0.0000e+00
     -0.309      0.061     7.9121     90.749     25.643  24.179923     0.2439      9.131   250.2330 1.6700e+03     1.0476     -0.304     -0.441    22.1459   997.7518 0.0000e+00
     -0.301      0.061     7.9178     90.813     25.635  24.171780     0.2393      9.126   250.3677 1.6473e+03     1.0551     -0.298     -0.432    22.1439   997.7523 0.0000e+00
     -0.288      0.064     7.9262     90.904     25.614  24.150830     0.2476      9.126   250.3421 1.5486e+03     1.0642     -0.286     -0.416    22.1429   997.7525 0.0000e+00
     -0.267      0.069     7.9345     90.993     25.580  24.116918     0.2569      9.127   250.1814 1.3373e+03     1.0595     -0.264     -0.383    22.1424   997.7527 0.0000e+00
     -0.241      0.074     7.9383     91.032     25.608  24.142353     0.2564      9.126   250.0584 1.0860e+03     1.0318     -0.233     -0.338    22.1426   997.7529 0.0000e+00
     -0.219      0.079     7.9339     90.978     25.675  24.204624     0.2680      9.123   249.7160 8.6551e+02     1.0241     -0.212     -0.308    22.1422   997.7530 0.0000e+00
     -0.202      0.082     7.9200     90.817     25.641  24.172064     0.2928      9.119   249.2249 6.4505e+02     1.0644     -0.198     -0.287    22.1389   997.7539 0.0000e+00
     -0.186      0.082     7.9019     90.603     25.531  24.065836     0.3050      9.115   248.9390 5.1511e+02     1.1254     -0.183     -0.267    22.1346   997.7549 0.0000e+00
     -0.166      0.080     7.8869     90.415     25.465  23.998601     0.3112      9.110   248.8404 5.0784e+02     1.1398     -0.164     -0.239    22.1324   997.7554 0.0000e+00
     -0.141      0.078     7.8733     90.239     25.466  23.993452     0.3166      9.105   248.8079 5.0946e+02     1.1069     -0.138     -0.200    22.1304   997.7561 0.0000e+00
     -0.116      0.075     7.8551     90.014     25.481  24.003571     0.3180      9.100   248.7168 6.4261e+02     1.1215     -0.111     -0.160    22.1295   997.7563 0.0000e+00
     -0.096      0.071     7.8295     89.711     25.474  23.994076     0.3189      9.095   248.4277 9.0227e+02     1.1520     -0.091     -0.131    22.1280   997.7567 0.0000e+00
     -0.082      0.069     7.7978     89.341     25.488  24.005501     0.3194      9.086   248.1513 8.6864e+02     1.1152     -0.080     -0.115    22.1179   997.7591 0.0000e+00
     -0.070      0.070     7.7650     88.959     25.501  24.014841     0.3150      9.067   248.0427 7.6430e+02     1.0693     -0.069     -0.099    22.1039   997.7623 0.0000e+00
     -0.057      0.074     7.7347     88.602     25.467  23.980136     0.3087      9.042   247.9750 1.1061e+03     1.0898     -0.057     -0.081    22.0944   997.7646 0.0000e+00
     -0.039      0.079     7.7065     88.260     25.458  23.966487     0.3132      9.026   248.0208 1.3848e+03     1.1331     -0.043     -0.063    22.0886   997.7659 0.0000e+00
     -0.014      0.084     7.6825     87.960     25.477  23.976667     0.3166      9.021   248.1663 1.2058e+03     1.1342     -0.016     -0.024    22.0854   997.7668 0.0000e+00
      0.016      0.089     7.6674     87.762     25.485  23.976345     0.3065      9.021   248.2709 1.0559e+03     1.1031      0.020      0.029    22.0831   997.7675 0.0000e+00
      0.040      0.090     7.6626     87.684     25.477  23.962593     0.2958      9.023   248.4253 1.0579e+03     1.0847      0.041      0.060    22.0784   997.7687 0.0000e+00
      0.060      0.088     7.6663     87.702     25.458  23.937239     0.2993      9.026   248.6564 1.1005e+03     1.1084      0.057      0.083    22.0675   997.7712 0.0000e+00
      0.081      0.084     7.6770     87.800     25.452  23.923515     0.3148      9.029   248.8287 9.9552e+02     1.1604      0.081      0.117    22.0490   997.7756 0.0000e+00
      0.102      0.079     7.6920     87.950     25.458  23.923505     0.3186      9.030   248.9601 5.9092e+02     1.1890      0.101      0.146    22.0338   997.7791 0.0000e+00
      0.121      0.076     7.7053     88.089     25.477  23.937116     0.3105      9.026   249.0409 2.8670e+02     1.1920      0.118      0.171    22.0237   997.7815 0.0000e+00
      0.141      0.072     7.7130     88.174     25.503  23.961212     0.3121      9.017   249.0309 2.0074e+02     1.1970      0.138      0.200    22.0077   997.7852 0.0000e+00
      0.161      0.066     7.7151     88.198     25.503  23.961107     0.3112      9.009   249.0966 1.6501e+02     1.1833      0.159      0.230    21.9917   997.7888 0.0000e+00
      0.179      0.059     7.7139     88.183     25.477  23.935847     0.2996      9.006   249.2336 1.5711e+02     1.1583      0.175      0.253    21.9788   997.7919 0.0000e+00
      0.194      0.054     7.7150     88.194     25.449  23.909530     0.3110      9.005   249.3100 1.5444e+02     1.1234      0.191      0.278    21.9693   997.7941 0.0000e+00
      0.205      0.050     7.7240     88.291     25.437  23.896644     0.3540      9.004   249.4183 1.5558e+02     1.1218      0.203      0.294    21.9707   997.7939 0.0000e+00
      0.212      0.049     7.7385     88.446     25.451  23.906912     0.3862      9.000   249.5977 1.5792e+02     1.1714      0.206      0.299    21.9724   997.7936 0.0000e+00
      0.222      0.050     7.7508     88.578     25.454  23.906797     0.3878      8.991   249.6716 1.5706e+02     1.1669      0.216      0.314    21.9700   997.7941 0.0000e+00
      0.236      0.052     7.7573     88.646     25.444  23.895254     0.3742      8.977   249.6232 1.5568e+02     1.0994      0.233      0.336    21.9700   997.7942 0.0000e+00
      0.251      0.052     7.7566     88.632     25.445  23.894205     0.3595      8.964   249.6149 1.5533e+02     1.0764      0.245      0.355    21.9662   997.7951 0.0000e+00
      0.268      0.052     7.7475     88.522     25.447  23.894120     0.3570      8.958   249.7434 1.5462e+02     1.1176      0.262      0.381    21.9586   997.7969 0.0000e+00
      0.284      0.052     7.7327     88.344     25.450  23.894215     0.3624      8.953   249.8862 1.5728e+02     1.1391      0.282      0.409    21.9535   997.7981 0.0000e+00
      0.294      0.052     7.7143     88.123     25.455  23.895358     0.3637      8.948   249.8787 1.6116e+02     1.1398      0.290      0.421    21.9505   997.7988 0.0000e+00
      0.302      0.053     7.6930     87.867     25.472  23.907932     0.3639      8.944   249.9112 1.6412e+02     1.1267      0.293      0.426    21.9469   997.7997 0.0000e+00
      0.313      0.054     7.6712     87.604     25.488  23.919370     0.3653      8.941   250.1063 1.6862e+02     1.0792      0.305      0.443    21.9437   997.8004 0.0000e+00
      0.330      0.055     7.6525     87.379     25.478  23.906789     0.3717      8.938   250.1737 2.1707e+02     1.0559      0.324      0.470    21.9398   997.8014 0.0000e+00
      0.347      0.057     7.6371     87.192     25.456  23.882669     0.4150      8.933   250.1239 2.6245e+02     1.0746      0.341      0.494    21.9323   997.8032 0.0000e+00
      0.364      0.059     7.6231     87.024     25.458  23.881473     0.4982      8.928   250.1929 2.2268e+02     1.1084      0.357      0.518    21.9242   997.8051 0.0000e+00
      0.379      0.062     7.6143     86.917     25.472  23.892320     0.5545      8.925   250.3189 1.8220e+02     1.1375      0.374      0.541    21.9167   997.8068 0.0000e+00
      0.391      0.066     7.6145     86.912     25.469  23.886955     0.5589      8.919   250.5283 1.6978e+02     1.1314      0.383      0.555    21.9090   997.8087 0.0000e+00
      0.404      0.070     7.6244     87.013     25.465  23.880026     0.5511      8.906   250.7465 1.5918e+02     1.1002      0.393      0.570    21.9030   997.8100 0.0000e+00
      0.422      0.073     7.6418     87.198     25.461  23.871971     0.5554      8.892   250.8060 1.6209e+02     1.0879      0.412      0.596    21.8983   997.8112 0.0000e+00
      0.447      0.074     7.6596     87.388     25.444  23.852996     0.5680      8.882   250.8174 1.7041e+02     1.1135      0.437      0.635    21.8943   997.8122 0.0000e+00
      0.472      0.071     7.6742     87.546     25.434  23.840886     0.5731      8.877   250.8853 1.7572e+02     1.1484      0.465      0.675    21.8897   997.8133 0.0000e+00
      0.491      0.066     7.6882     87.701     25.448  23.852419     0.5561      8.877   250.9388 1.6626e+02     1.1488      0.484      0.702    21.8828   997.8150 0.0000e+00
      0.506      0.057     7.7017     87.855     25.462  23.865567     0.5531      8.878   250.9473 1.6434e+02     1.1184      0.497      0.720    21.8741   997.8171 0.0000e+00
      0.517      0.048     7.7129     87.985     25.469  23.873002     0.5896      8.880   250.9874 1.7110e+02     1.1088      0.509      0.738    21.8658   997.8190 0.0000e+00
      0.525      0.043     7.7215     88.085     25.475  23.878872     0.6154      8.882   251.0797 1.6357e+02     1.1302      0.515      0.748    21.8598   997.8204 0.0000e+00
      0.532      0.042     7.7290     88.170     25.469  23.873115     0.6142      8.882   251.2896 1.5582e+02     1.1477      0.521      0.756    21.8577   997.8209 0.0000e+00
      0.541      0.046     7.7380     88.271     25.464  23.866824     0.6101      8.880   251.5462 1.5422e+02     1.1582      0.530      0.769    21.8586   997.8208 0.0000e+00
      0.554      0.052     7.7465     88.362     25.465  23.866244     0.6166      8.876   251.6868 1.5097e+02     1.1585      0.542      0.786    21.8611   997.8202 0.0000e+00
      0.569      0.059     7.7490     88.384     25.466  23.866093     0.6239      8.870   251.7852 1.5085e+02     1.1504      0.557      0.808    21.8629   997.8198 0.0000e+00
      0.586      0.064     7.7460     88.344     25.467  23.864997     0.6194      8.865   251.8753 1.5116e+02     1.1260      0.574      0.833    21.8621   997.8201 0.0000e+00
      0.605      0.068     7.7397     88.264     25.457  23.852986     0.6146      8.861   251.9159 1.4948e+02     1.0933      0.592      0.859    21.8593   997.8208 0.0000e+00
      0.625      0.069     7.7303     88.149     25.454  23.847735     0.6101      8.856   251.9321 1.4917e+02     1.0825      0.613      0.889    21.8564   997.8216 0.0000e+00
      0.643      0.066     7.7213     88.039     25.475  23.864931     0.6080      8.849   251.9851 1.5927e+02     1.0931      0.632      0.916    21.8535   997.8223 0.0000e+00
      0.659      0.061     7.7146     87.957     25.482  23.870602     0.6154      8.842   252.0410 1.7032e+02     1.1233      0.645      0.936    21.8491   997.8234 0.0000e+00
      0.676      0.054     7.7095     87.895     25.464  23.852873     0.6218      8.838   252.0914 1.8140e+02     1.1199      0.662      0.961    21.8440   997.8247 0.0000e+00
      0.691      0.048     7.7076     87.873     25.452  23.840866     0.6157      8.835   252.2497 1.9438e+02     1.0850      0.681      0.987    21.8396   997.8257 0.0000e+00
      0.701      0.046     7.7103     87.905     25.464  23.852295     0.6025      8.831   252.4071 1.9241e+02     1.0947      0.691      1.001    21.8354   997.8266 0.0000e+00
      0.706      0.046     7.7148     87.959     25.476  23.864186     0.6008      8.826   252.4453 1.8520e+02     1.1061      0.692      1.003    21.8319   997.8275 0.0000e+00
      0.713      0.048     7.7207     88.027     25.468  23.857782     0.6124      8.821   252.5401 1.9933e+02     1.0911      0.695      1.009    21.8298   997.8279 0.0000e+00
      0.728      0.053     7.7304     88.136     25.448  23.838290     0.6223      8.815   252.7785 2.1402e+02     1.0778      0.713      1.034    21.8292   997.8281 0.0000e+00
      0.745      0.058     7.7406     88.251     25.428  23.818807     0.6239      8.805   253.0053 1.9481e+02     1.0764      0.732      1.061    21.8305   997.8279 0.0000e+00
      0.762      0.060     7.7470     88.320     25.423  23.812518     0.6235      8.796   253.1312 1.7311e+02     1.1064      0.746      1.082    21.8324   997.8276 0.0000e+00
      0.780      0.060     7.7504     88.355     25.438  23.825676     0.6263      8.791   253.1812 1.5546e+02     1.1129      0.765      1.109    21.8328   997.8275 0.0000e+00
      0.799      0.056     7.7549     88.403     25.466  23.851028     0.6308      8.790   253.2652 1.3843e+02     1.0907      0.787      1.140    21.8319   997.8279 0.0000e+00
      0.811      0.052     7.7620     88.483     25.481  23.865321     0.6358      8.790   253.4588 1.2558e+02     1.0995      0.797      1.156    21.8305   997.8282 0.0000e+00
      0.820      0.048     7.7673     88.543     25.488  23.871621     0.6343      8.786   253.6289 1.1502e+02     1.1205      0.802      1.163    21.8283   997.8287 0.0000e+00
      0.829      0.044     7.7671     88.540     25.480  23.863775     0.6303      8.780   253.6874 1.0908e+02     1.1152      0.813      1.179    21.8259   997.8294 0.0000e+00
      0.840      0.043     7.7618     88.476     25.449  23.833894     0.6393      8.774   253.7369 1.0381e+02     1.1014      0.824      1.195    21.8243   997.8298 0.0000e+00
      0.853      0.043     7.7505     88.344     25.443  23.827491     0.6561      8.769   253.8821 1.0206e+02     1.0850      0.836      1.213    21.8233   997.8300 0.0000e+00
      0.865      0.045     7.7328     88.141     25.468  23.849781     0.6691      8.769   254.1532 1.0020e+02     1.0813      0.849      1.232    21.8234   997.8301 0.0000e+00
      0.875      0.047     7.7137     87.921     25.469  23.849666     0.6747      8.769   254.4335 9.8044e+01     1.1213      0.858      1.244    21.8229   997.8302 0.0000e+00
      0.884      0.048     7.7032     87.800     25.444  23.826107     0.6547      8.769   254.5185 9.4793e+01     1.1430      0.866      1.256    21.8214   997.8306 0.0000e+00
      0.897      0.048     7.7043     87.810     25.436  23.818662     0.6268      8.767   254.5790 9.1134e+01     1.1138      0.878      1.274    21.8200   997.8309 0.0000e+00
      0.912      0.046     7.7120     87.895     25.441  23.823077     0.6238      8.764   254.8202 8.7490e+01     1.0962      0.893      1.296    21.8186   997.8314 0.0000e+00
      0.927      0.042     7.7215     88.001     25.435  23.816054     0.6263      8.761   254.9387 8.3950e+01     1.1263      0.910      1.320    21.8174   997.8317 0.0000e+00
      0.939      0.038     7.7276     88.070     25.415  23.797181     0.6309      8.759   254.9793 8.0627e+01     1.1504      0.924      1.340    21.8161   997.8320 0.0000e+00
      0.946      0.033     7.7296     88.091     25.402  23.785179     0.6447      8.757   255.2263 7.7450e+01     1.1249      0.929      1.348    21.8151   997.8323 0.0000e+00
      0.949      0.028     7.7274     88.065     25.417  23.797809     0.6547      8.755   255.4294 7.5263e+01     1.1137      0.930      1.349    21.8135   997.8327 0.0000e+00
      0.954      0.024     7.7184     87.962     25.444  23.823019     0.6643      8.754   255.4569 7.3987e+01     1.1453      0.934      1.354    21.8120   997.8330 0.0000e+00
      0.961      0.021     7.7064     87.823     25.459  23.836259     0.6745      8.753   255.5584 7.3217e+01     1.1475      0.943      1.367    21.8116   997.8331 0.0000e+00
      0.969      0.020     7.6989     87.734     25.454  23.831027     0.6736      8.751   255.7959 7.2769e+01     1.1075      0.952      1.380    21.8110   997.8333 0.0000e+00
      0.974      0.019     7.6993     87.734     25.447  23.823191     0.6708      8.748   256.0061 7.2713e+01     1.0878      0.955      1.385    21.8100   997.8336 0.0000e+00
      0.977      0.017     7.7075     87.826     25.429  23.804949     0.6754      8.746   256.1202 7.2741e+01     1.1056      0.957      1.388    21.8094   997.8337 0.0000e+00
      0.980      0.017     7.7220     87.990     25.424  23.800758     0.6776      8.744   256.1431 7.2437e+01     1.1254      0.961      1.394    21.8084   997.8339 0.0000e+00
      0.984      0.019     7.7376     88.168     25.462  23.835949     0.6711      8.742   256.1974 7.2407e+01     1.1307      0.966      1.400    21.8059   997.8345 0.0000e+00
      0.988      0.023     7.7499     88.308     25.477  23.849839     0.6662      8.741   256.3466 7.2711e+01     1.1370      0.968      1.404    21.8035   997.8351 0.0000e+00
      0.992      0.028     7.7582     88.401     25.469  23.841847     0.6796      8.740   256.3982 7.2943e+01     1.1357      0.972      1.409    21.8026   997.8353 0.0000e+00
      1.000      0.034     7.7598     88.415     25.495  23.866179     0.6941      8.739   256.3904 7.3148e+01     1.1153      0.980      1.421    21.8025   997.8353 0.0000e+00
      1.012      0.040     7.7535     88.338     25.523  23.890304     0.6936      8.735   256.5112 7.3376e+01     1.0877      0.992      1.439    21.8030   997.8353 0.0000e+00
      1.024      0.048     7.7443     88.228     25.514  23.879802     0.6826      8.730   256.6544 7.3761e+01     1.0633      1.005      1.457    21.8028   997.8354 0.0000e+00
      1.035      0.055     7.7341     88.106     25.500  23.866067     0.6737      8.725   256.7454 7.4436e+01     1.0828      1.014      1.471    21.8013   997.8358 0.0000e+00
      1.048      0.060     7.7232     87.980     25.485  23.851098     0.6816      8.720   256.9220 7.5792e+01     1.1268      1.025      1.488    21.7997   997.8363 0.0000e+00
      1.066      0.063     7.7128     87.860     25.459  23.825674     0.6829      8.715   257.1557 7.7297e+01     1.1360      1.045      1.516    21.7966   997.8370 0.0000e+00
      1.086      0.065     7.7042     87.755     25.447  23.812396     0.6715      8.710   257.2474 7.8525e+01     1.1623      1.065      1.544    21.7917   997.8381 0.0000e+00
      1.105      0.065     7.7001     87.700     25.455  23.817418     0.6662      8.703   257.1705 7.9746e+01     1.1825      1.085      1.572    21.7893   997.8388 0.0000e+00
      1.121      0.062     7.6999     87.689     25.463  23.822958     0.6703      8.695   257.1730 8.0890e+01     1.1503      1.102      1.597    21.7889   997.8390 0.0000e+00
      1.135      0.056     7.7000     87.683     25.458  23.815943     0.6775      8.690   257.3634 8.2656e+01     1.1340      1.113      1.615    21.7879   997.8393 0.0000e+00
      1.150      0.051     7.6975     87.651     25.438  23.796030     0.6759      8.688   257.4937 8.4701e+01     1.1159      1.128      1.636    21.7841   997.8402 0.0000e+00
      1.163      0.046     7.6930     87.597     25.414  23.772492     0.6673      8.688   257.5430 8.6776e+01     1.0952      1.143      1.658    21.7781   997.8416 0.0000e+00
      1.173      0.043     7.6885     87.544     25.428  23.785073     0.6609      8.687   257.7017 8.9178e+01     1.1132      1.151      1.669    21.7730   997.8428 0.0000e+00
      1.180      0.042     7.6829     87.479     25.467  23.821288     0.6598      8.686   257.7773 9.0314e+01     1.1052      1.157      1.678    21.7691   997.8437 0.0000e+00
      1.189      0.042     7.6731     87.367     25.476  23.829760     0.6615      8.685   257.6828 9.0454e+01     1.0632      1.164      1.690    21.7663   997.8443 0.0000e+00
      1.200      0.043     7.6622     87.244     25.470  23.824080     0.6642      8.685   257.5925 9.0226e+01     1.0651      1.176      1.706    21.7647   997.8447 0.0000e+00
      1.214      0.046     7.6574     87.189     25.461  23.816036     0.6674      8.684   257.5457 8.8376e+01     1.0950      1.191      1.728    21.7642   997.8449 0.0000e+00
      1.226      0.050     7.6593     87.210     25.440  23.795926     0.6741      8.681   257.6330 8.6936e+01     1.0960      1.203      1.744    21.7639   997.8451 0.0000e+00
      1.237      0.052     7.6656     87.278     25.415  23.771234     0.6757      8.678   257.7878 8.8951e+01     1.1104      1.213      1.759    21.7633   997.8452 0.0000e+00
      1.251      0.053     7.6701     87.324     25.417  23.771224     0.6694      8.675   257.8687 9.5932e+01     1.1379      1.226      1.778    21.7633   997.8453 0.0000e+00
      1.267      0.052     7.6662     87.277     25.444  23.795802     0.6670      8.671   257.8375 1.0412e+02     1.1339      1.242      1.801    21.7640   997.8452 0.0000e+00
      1.282      0.051     7.6581     87.183     25.465  23.814674     0.6636      8.668   257.7538 1.0789e+02     1.1282      1.257      1.825    21.7636   997.8454 0.0000e+00
      1.297      0.048     7.6505     87.095     25.460  23.809107     0.6632      8.666   257.7169 1.0810e+02     1.1333      1.272      1.845    21.7610   997.8460 0.0000e+00
      1.308      0.043     7.6438     87.017     25.442  23.791920     0.6706      8.664   257.6500 1.0479e+02     1.1300      1.284      1.862    21.7578   997.8468 0.0000e+00
      1.317      0.038     7.6410     86.982     25.448  23.797164     0.6751      8.662   257.6334 9.8254e+01     1.0893      1.291      1.873    21.7561   997.8472 0.0000e+00
      1.325      0.034     7.6438     87.010     25.462  23.809070     0.6750      8.661   257.7742 9.3286e+01     1.0672      1.299      1.884    21.7550   997.8475 0.0000e+00
      1.332      0.032     7.6520     87.099     25.463  23.809014     0.6774      8.658   257.8897 9.2697e+01     1.1242      1.307      1.895    21.7533   997.8480 0.0000e+00
      1.339      0.032     7.6664     87.259     25.451  23.796479     0.6782      8.654   257.9963 9.3748e+01     1.1565      1.314      1.905    21.7525   997.8481 0.0000e+00
      1.347      0.032     7.6839     87.457     25.439  23.784383     0.6763      8.652   258.1172 9.3417e+01     1.1293      1.321      1.916    21.7519   997.8483 0.0000e+00
      1.356      0.034     7.6998     87.635     25.445  23.789626     0.6798      8.650   258.0616 9.2985e+01     1.1234      1.330      1.929    21.7493   997.8489 0.0000e+00
      1.364      0.039     7.7136     87.787     25.454  23.796431     0.6864      8.647   258.0118 9.2247e+01     1.1181      1.338      1.941    21.7462   997.8496 0.0000e+00
      1.373      0.045     7.7244     87.907     25.463  23.803227     0.6868      8.642   258.1179 9.0366e+01     1.0974      1.347      1.952    21.7449   997.8500 0.0000e+00
      1.382      0.051     7.7298     87.967     25.469  23.808364     0.6764      8.637   258.2255 8.9571e+01     1.1030      1.354      1.963    21.7441   997.8502 0.0000e+00
      1.396      0.056     7.7311     87.982     25.454  23.795112     0.6730      8.632   258.2799 8.8823e+01     1.1210      1.367      1.983    21.7422   997.8507 0.0000e+00
      1.415      0.061     7.7290     87.958     25.427  23.769854     0.6797      8.628   258.2595 8.7601e+01     1.1181      1.388      2.014    21.7390   997.8514 0.0000e+00
      1.434      0.065     7.7220     87.876     25.413  23.756706     0.6887      8.621   258.2375 8.7840e+01     1.1661      1.407      2.041    21.7358   997.8523 0.0000e+00
      1.450      0.066     7.7131     87.772     25.421  23.762996     0.7046      8.610   258.2714 8.9168e+01     1.2754      1.422      2.063    21.7347   997.8526 0.0000e+00
      1.466      0.062     7.7081     87.712     25.443  23.782479     0.7149      8.599   258.2392 9.0571e+01     1.3251      1.437      2.085    21.7357   997.8525 0.0000e+00
      1.485      0.056     7.7106     87.737     25.465  23.801969     0.7184      8.593   258.1923 9.0935e+01     1.3406      1.456      2.112    21.7366   997.8523 0.0000e+00
      1.502      0.050     7.7194     87.835     25.473  23.808355     0.7201      8.591   258.2212 9.1292e+01     1.2994      1.475      2.140    21.7355   997.8527 0.0000e+00
      1.513      0.047     7.7299     87.955     25.460  23.796256     0.7188      8.593   258.2441 9.1334e+01     1.1869      1.486      2.155    21.7333   997.8532 0.0000e+00
      1.519      0.045     7.7361     88.025     25.445  23.782549     0.7200      8.595   258.2979 8.9721e+01     1.1609      1.489      2.160    21.7311   997.8537 0.0000e+00
      1.525      0.042     7.7330     87.990     25.431  23.769487     0.7252      8.593   258.3544 8.9358e+01     1.1805      1.494      2.166    21.7292   997.8541 0.0000e+00
      1.537      0.041     7.7202     87.844     25.426  23.765188     0.7307      8.592   258.3254 9.0590e+01     1.1294      1.505      2.182    21.7282   997.8544 0.0000e+00
      1.552      0.042     7.7030     87.649     25.456  23.794011     0.7257      8.592   258.3777 9.1177e+01     1.0679      1.521      2.208    21.7280   997.8545 0.0000e+00
      1.566      0.043     7.6895     87.495     25.464  23.800817     0.7070      8.593   258.5557 9.1479e+01     1.0594      1.539      2.232    21.7281   997.8546 0.0000e+00
      1.575      0.044     7.6811     87.400     25.446  23.784042     0.6956      8.595   258.5853 9.2304e+01     1.0922      1.545      2.241    21.7283   997.8546 0.0000e+00
      1.581      0.045     7.6740     87.319     25.444  23.781491     0.6920      8.597   258.4770 9.4418e+01     1.1372      1.549      2.246    21.7285   997.8545 0.0000e+00
      1.591      0.046     7.6684     87.254     25.432  23.769967     0.6805      8.597   258.5374 9.6149e+01     1.1439      1.561      2.263    21.7286   997.8546 0.0000e+00
      1.603      0.048     7.6645     87.209     25.434  23.771566     0.6694      8.597   258.7129 9.7479e+01     1.1079      1.572      2.279    21.7288   997.8546 0.0000e+00
      1.617      0.051     7.6565     87.117     25.465  23.800827     0.6704      8.596   258.7934 9.8017e+01     1.0954      1.585      2.298    21.7287   997.8547 0.0000e+00
      1.634      0.052     7.6436     86.970     25.471  23.806593     0.6924      8.593   258.8221 9.5115e+01     1.1240      1.602      2.324    21.7286   997.8548 0.0000e+00
      1.650      0.050     7.6311     86.828     25.441  23.777856     0.7193      8.588   258.8873 9.3495e+01     1.1258      1.620      2.349    21.7283   997.8549 0.0000e+00
      1.662      0.047     7.6231     86.737     25.433  23.770535     0.7273      8.583   258.9795 9.5852e+01     1.0850      1.631      2.365    21.7277   997.8551 0.0000e+00
      1.672      0.043     7.6230     86.736     25.445  23.781507     0.7278      8.579   259.0766 9.6855e+01     1.0895      1.640      2.378    21.7272   997.8553 0.0000e+00
      1.681      0.041     7.6314     86.831     25.447  23.783642     0.7256      8.575   259.1145 9.4518e+01     1.1144      1.651      2.394    21.7269   997.8554 0.0000e+00
      1.689      0.041     7.6437     86.970     25.461  23.796357     0.7175      8.569   259.0933 9.2445e+01     1.0903      1.657      2.404    21.7266   997.8555 0.0000e+00
      1.697      0.041     7.6540     87.087     25.474  23.808376     0.7171      8.564   259.1650 9.3499e+01     1.0602      1.662      2.411    21.7265   997.8555 0.0000e+00
      1.710      0.042     7.6630     87.190     25.467  23.802095     0.7212      8.562   259.3790 1.0369e+02     1.0460      1.676      2.432    21.7266   997.8556 0.0000e+00
      1.724      0.043     7.6743     87.319     25.447  23.783852     0.7241      8.562   259.5305 1.1337e+02     1.0490      1.694      2.455    21.7264   997.8557 0.0000e+00
      1.736      0.045     7.6851     87.441     25.441  23.778095     0.7602      8.563   259.5327 1.0835e+02     1.0972      1.703      2.469    21.7264   997.8557 0.0000e+00
      1.746      0.047     7.6898     87.495     25.460  23.795919     0.8187      8.564   259.6646 1.0434e+02     1.1365      1.712      2.483    21.7263   997.8558 0.0000e+00
      1.756      0.051     7.6893     87.490     25.475  23.809068     0.8345      8.563   259.9213 1.1116e+02     1.1312      1.722      2.497    21.7265   997.8558 0.0000e+00
      1.766      0.058     7.6859     87.451     25.476  23.810211     0.8293      8.559   259.9680 1.1516e+02     1.1327      1.730      2.511    21.7267   997.8558 0.0000e+00
      1.780      0.068     7.6784     87.364     25.475  23.809738     0.8254      8.552   259.8845 1.0924e+02     1.1861      1.745      2.531    21.7265   997.8559 0.0000e+00
      1.798      0.078     7.6693     87.259     25.469  23.803353     0.8048      8.546   259.9453 1.0420e+02     1.2854      1.762      2.555    21.7264   997.8560 0.0000e+00
      1.822      0.086     7.6633     87.190     25.462  23.796433     0.7882      8.541   260.1008 1.0519e+02     1.3170      1.785      2.587    21.7265   997.8561 0.0000e+00
      1.851      0.090     7.6614     87.167     25.454  23.789504     0.7810      8.536   260.2160 1.1295e+02     1.3068      1.817      2.635    21.7264   997.8562 0.0000e+00
      1.877      0.089     7.6603     87.156     25.447  23.783005     0.7776      8.534   260.2194 1.2652e+02     1.2926      1.842      2.671    21.7263   997.8565 0.0000e+00
      1.900      0.084     7.6591     87.144     25.445  23.781285     0.7732      8.536   260.2282 1.4322e+02     1.2107      1.862      2.700    21.7254   997.8567 0.0000e+00
      1.923      0.079     7.6636     87.195     25.431  23.768712     0.7720      8.538   260.4082 1.6372e+02     1.1366      1.889      2.740    21.7239   997.8571 0.0000e+00
      1.940      0.077     7.6771     87.348     25.421  23.757851     0.7804      8.539   260.5888 1.6856e+02     1.1178      1.906      2.765    21.7235   997.8573 0.0000e+00
      1.951      0.077     7.6955     87.555     25.442  23.776829     0.7969      8.540   260.6916 1.8190e+02     1.1800      1.911      2.772    21.7247   997.8571 0.0000e+00
      1.966      0.079     7.7132     87.756     25.475  23.807873     0.8234      8.539   260.7908 2.2128e+02     1.2985      1.925      2.791    21.7254   997.8570 0.0000e+00
      1.991      0.083     7.7257     87.897     25.484  23.816030     0.8404      8.538   260.8418 2.5550e+02     1.3381      1.952      2.830    21.7258   997.8570 0.0000e+00
      2.018      0.088     7.7297     87.941     25.480  23.812028     0.8382      8.537   260.8778 2.6448e+02     1.3315      1.980      2.872    21.7252   997.8573 0.0000e+00
      2.043      0.092     7.7243     87.881     25.491  23.822908     0.8311      8.536   260.9679 2.5093e+02     1.3485      2.005      2.908    21.7236   997.8577 0.0000e+00
      2.065      0.090     7.7143     87.766     25.489  23.820716     0.8156      8.533   261.0712 2.5123e+02     1.3146      2.025      2.938    21.7228   997.8580 0.0000e+00
      2.089      0.081     7.7051     87.661     25.451  23.785531     0.7887      8.530   261.1797 2.6683e+02     1.2166      2.048      2.970    21.7221   997.8583 0.0000e+00
      2.113      0.071     7.6984     87.585     25.443  23.778096     0.7749      8.530   261.2477 2.6288e+02     1.1471      2.074      3.008    21.7217   997.8585 0.0000e+00
      2.133      0.063     7.6959     87.557     25.461  23.794242     0.7786      8.529   261.2050 2.3718e+02     1.1300      2.096      3.039    21.7219   997.8585 0.0000e+00
      2.144      0.058     7.6976     87.577     25.457  23.790448     0.7812      8.527   261.2656 2.3275e+02     1.1084      2.104      3.052    21.7219   997.8586 0.0000e+00
      2.150      0.056     7.7019     87.625     25.462  23.795662     0.7808      8.525   261.5504 2.5833e+02     1.0821      2.107      3.057    21.7217   997.8586 0.0000e+00
      2.158      0.055     7.7066     87.678     25.460  23.793851     0.7825      8.524   261.8090 2.7518e+02     1.0737      2.113      3.064    21.7220   997.8586 0.0000e+00
      2.175      0.057     7.7078     87.692     25.433  23.768546     0.7839      8.523   261.8976 2.5632e+02     1.0719      2.130      3.090    21.7221   997.8587 0.0000e+00
      2.197      0.062     7.7043     87.653     25.406  23.743431     0.7976      8.523   261.8474 2.5518e+02     1.0929      2.158      3.130    21.7221   997.8587 0.0000e+00
      2.214      0.068     7.7010     87.615     25.407  23.743916     0.8279      8.522   261.8041 2.6969e+02     1.1314      2.173      3.153    21.7223   997.8588 0.0000e+00
      2.227      0.073     7.6995     87.598     25.440  23.774408     0.8465      8.521   261.9763 2.4107e+02     1.1450      2.181      3.163    21.7223   997.8588 0.0000e+00
      2.244      0.077     7.6984     87.584     25.462  23.794948     0.8490      8.519   262.1231 2.1755e+02     1.1257      2.199      3.189    21.7221   997.8590 0.0000e+00
      2.265      0.079     7.7014     87.619     25.469  23.801971     0.8328      8.517   262.1161 2.1413e+02     1.0949      2.222      3.222    21.7219   997.8591 0.0000e+00
      2.286      0.081     7.7083     87.697     25.463  23.795889     0.7974      8.516   262.1493 2.1501e+02     1.1004      2.241      3.250    21.7219   997.8592 0.0000e+00
      2.311      0.080     7.7145     87.767     25.452  23.784849     0.7769      8.515   262.1811 2.2829e+02     1.1263      2.266      3.287    21.7219   997.8593 0.0000e+00
      2.335      0.075     7.7198     87.827     25.463  23.795345     0.7757      8.512   262.1563 2.3067e+02     1.1137      2.293      3.326    21.7218   997.8594 0.0000e+00
      2.355      0.070     7.7240     87.874     25.463  23.795921     0.7732      8.510   262.1068 2.1250e+02     1.1119      2.311      3.351    21.7215   997.8596 0.0000e+00
      2.370      0.066     7.7268     87.906     25.459  23.791813     0.7816      8.509   262.0994 1.9904e+02     1.1379      2.325      3.372    21.7212   997.8597 0.0000e+00
      2.381      0.062     7.7286     87.926     25.478  23.809112     0.7995      8.508   262.1525 1.9066e+02     1.1322      2.336      3.387    21.7211   997.8598 0.0000e+00
      2.393      0.061     7.7294     87.936     25.484  23.814783     0.7980      8.507   262.2333 2.1485e+02     1.1083      2.344      3.400    21.7210   997.8599 0.0000e+00
      2.409      0.063     7.7309     87.952     25.465  23.796951     0.7898      8.506   262.3023 2.4241e+02     1.1115      2.362      3.425    21.7206   997.8600 0.0000e+00
      2.428      0.067     7.7352     88.001     25.450  23.783801     0.8050      8.504   262.3833 2.0300e+02     1.2038      2.383      3.456    21.7204   997.8602 0.0000e+00
      2.446      0.071     7.7412     88.070     25.449  23.782658     0.8345      8.500   262.5248 1.5787e+02     1.3391      2.399      3.479    21.7206   997.8602 0.0000e+00
      2.464      0.074     7.7481     88.148     25.450  23.783130     0.8427      8.496   262.6363 1.4530e+02     1.3713      2.416      3.504    21.7207   997.8603 0.0000e+00
      2.484      0.074     7.7541     88.214     25.457  23.789515     0.8347      8.492   262.6123 1.4480e+02     1.3313      2.437      3.532    21.7202   997.8605 0.0000e+00
      2.504      0.072     7.7478     88.141     25.465  23.796425     0.8253      8.489   262.6661 1.6261e+02     1.2803      2.455      3.560    21.7202   997.8605 0.0000e+00
      2.524      0.067     7.7203     87.827     25.473  23.803231     0.8066      8.487   262.8558 1.8755e+02     1.2148      2.476      3.591    21.7205   997.8605 0.0000e+00
      2.544      0.061     7.6806     87.374     25.479  23.808379     0.7907      8.486   262.9268 2.0900e+02     1.1615      2.497      3.621    21.7201   997.8608 0.0000e+00
      2.559      0.054     7.6449     86.968     25.465  23.795229     0.7807      8.485   262.9223 2.2376e+02     1.1271      2.511      3.641    21.7193   997.8610 0.0000e+00
      2.569      0.049     7.6233     86.722     25.439  23.771105     0.7895      8.485   262.9736 2.1136e+02     1.1264      2.520      3.654    21.7182   997.8612 0.0000e+00
      2.578      0.047     7.6163     86.642     25.438  23.770423     0.8192      8.484   263.0314 1.8625e+02     1.1203      2.527      3.666    21.7175   997.8615 0.0000e+00
      2.587      0.047     7.6168     86.649     25.456  23.786989     0.8360      8.484   263.0180 1.9240e+02     1.0863      2.536      3.677    21.7170   997.8616 0.0000e+00
      2.597      0.050     7.6238     86.728     25.450  23.781109     0.8363      8.483   262.9840 2.1168e+02     1.0756      2.546      3.691    21.7167   997.8617 0.0000e+00
      2.611      0.054     7.6414     86.928     25.430  23.762750     0.8404      8.481   262.9646 2.0759e+02     1.0896      2.560      3.712    21.7168   997.8618 0.0000e+00
      2.627      0.056     7.6669     87.218     25.422  23.755314     0.8514      8.476   262.9560 1.9466e+02     1.0922      2.576      3.736    21.7168   997.8618 0.0000e+00
      2.645      0.054     7.6938     87.524     25.422  23.754639     0.8560      8.471   262.9660 1.8368e+02     1.0742      2.594      3.762    21.7168   997.8619 0.0000e+00
      2.661      0.048     7.7168     87.785     25.422  23.754583     0.8447      8.466   262.9136 1.8671e+02     1.0682      2.611      3.786    21.7165   997.8621 0.0000e+00
      2.675      0.039     7.7336     87.976     25.422  23.754640     0.8186      8.465   262.8386 1.9908e+02     1.0857      2.625      3.807    21.7166   997.8621 0.0000e+00
      2.684      0.028     7.7463     88.120     25.423  23.755326     0.7917      8.466   262.8341 2.0272e+02     1.0890      2.635      3.822    21.7164   997.8622 0.0000e+00
      2.687      0.018     7.7555     88.225     25.431  23.762875     0.7800      8.467   262.8581 1.9762e+02     1.1084      2.637      3.825    21.7161   997.8623 0.0000e+00
      2.687      0.008     7.7612     88.290     25.451  23.782481     0.7806      8.468   262.8699 1.8963e+02     1.1555      2.634      3.820    21.7159   997.8623 0.0000e+00
      2.687      0.004     7.7625     88.304     25.472  23.802087     0.7818      8.470   262.8904 1.8991e+02     1.1675      2.633      3.819    21.7157   997.8623 0.0000e+00
      2.687      0.007     7.7597     88.273     25.480  23.809626     0.7948      8.470   262.8485 1.9183e+02     1.1547      2.637      3.824    21.7158   997.8623 0.0000e+00
      2.685      0.015     7.7580     88.253     25.481  23.810204     0.8243      8.465   262.7085 1.9374e+02     1.1320      2.634      3.821    21.7159   997.8623 0.0000e+00
      2.684      0.024     7.7586     88.261     25.480  23.809071     0.8440      8.460   262.6595 1.9690e+02     1.1222      2.628      3.811    21.7160   997.8623 0.0000e+00
      2.692      0.031     7.7558     88.229     25.466  23.795922     0.8424      8.457   262.6869 2.0380e+02     1.1355      2.636      3.824    21.7159   997.8623 0.0000e+00
      2.710      0.036     7.7471     88.129     25.447  23.778088     0.8482      8.456   262.6955 2.1270e+02     1.1945      2.658      3.856    21.7159   997.8624 0.0000e+00
      2.725      0.039     7.7391     88.038     25.453  23.783740     0.8790      8.454   262.7633 2.0840e+02     1.3109      2.674      3.880    21.7162   997.8624 0.0000e+00
      2.735      0.039     7.7364     88.007     25.471  23.800830     0.9028      8.452   262.8188 1.9782e+02     1.3630      2.682      3.891    21.7160   997.8625 0.0000e+00
      2.742      0.035     7.7388     88.032     25.465  23.794425     0.9022      8.452   262.7642 1.9911e+02     1.3328      2.688      3.898    21.7158   997.8626 0.0000e+00
      2.749      0.031     7.7476     88.130     25.439  23.769733     0.8726      8.453   262.7055 1.9904e+02     1.2737      2.696      3.910    21.7157   997.8626 0.0000e+00
      2.757      0.029     7.7634     88.306     25.426  23.756006     0.8211      8.454   262.7115 1.8644e+02     1.2050      2.705      3.923    21.7154   997.8628 0.0000e+00
      2.762      0.029     7.7822     88.513     25.428  23.755326     0.7908      8.454   262.6639 1.7499e+02     1.1571      2.709      3.928    21.7152   997.8628 0.0000e+00
      2.768      0.029     7.7976     88.682     25.436  23.761504     0.7838      8.454   262.6464 1.6047e+02     1.1211      2.712      3.934    21.7143   997.8630 0.0000e+00
      2.776      0.032     7.8042     88.753     25.443  23.767260     0.7801      8.454   262.7579 1.4484e+02     1.0968      2.722      3.947    21.7132   997.8633 0.0000e+00
      2.786      0.037     7.8010     88.714     25.438  23.761493     0.7811      8.452   262.8074 1.3269e+02     1.0928      2.734      3.965    21.7110   997.8639 0.0000e+00
      2.795      0.044     7.7938     88.628     25.433  23.755202     0.7881      8.450   262.7289 1.2015e+02     1.1391      2.742      3.977    21.7070   997.8648 0.0000e+00
      2.802      0.051     7.7892     88.570     25.434  23.754636     0.7859      8.448   262.6692 1.1605e+02     1.1653      2.745      3.981    21.7031   997.8657 0.0000e+00
      2.815      0.056     7.7888     88.561     25.436  23.754636     0.7712      8.446   262.6887 1.1744e+02     1.1145      2.757      3.999    21.7012   997.8662 0.0000e+00
      2.836      0.059     7.7901     88.571     25.437  23.755202     0.7668      8.442   262.7059 1.1902e+02     1.0816      2.781      4.035    21.6996   997.8666 0.0000e+00
      2.856      0.059     7.7896     88.561     25.445  23.761482     0.7763      8.438   262.7054 1.2351e+02     1.0953      2.801      4.063    21.6968   997.8673 0.0000e+00
      2.873      0.056     7.7854     88.510     25.452  23.767136     0.7901      8.438   262.7674 1.3743e+02     1.1166      2.817      4.086    21.6936   997.8681 0.0000e+00
      2.888      0.050     7.7788     88.433     25.445  23.760121     0.7956      8.439   262.8535 1.4957e+02     1.1096      2.835      4.112    21.6904   997.8689 0.0000e+00
      2.898      0.043     7.7741     88.376     25.425  23.740105     0.8083      8.440   262.8867 1.3825e+02     1.1089      2.843      4.124    21.6883   997.8694 0.0000e+00
      2.903      0.037     7.7733     88.364     25.400  23.715410     0.8395      8.443   262.9963 1.2018e+02     1.1414      2.846      4.128    21.6859   997.8700 0.0000e+00
      2.910      0.034     7.7744     88.374     25.400  23.715267     0.8525      8.443   263.2326 1.1276e+02     1.1416      2.854      4.139    21.6839   997.8705 0.0000e+00
      2.919      0.033     7.7765     88.393     25.426  23.738381     0.8434      8.440   263.4211 1.1252e+02     1.1110      2.864      4.153    21.6831   997.8707 0.0000e+00
      2.928      0.033     7.7799     88.428     25.431  23.741146     0.8254      8.437   263.4680 1.1546e+02     1.0998      2.870      4.162    21.6800   997.8714 0.0000e+00
      2.938      0.031     7.7849     88.482     25.439  23.748693     0.7985      8.436   263.4556 1.1712e+02     1.1038      2.881      4.179    21.6787   997.8718 0.0000e+00
      2.949      0.029     7.7924     88.567     25.458  23.766191     0.7790      8.436   263.4431 1.2188e+02     1.1269      2.893      4.196    21.6784   997.8719 0.0000e+00
      2.956      0.028     7.8005     88.662     25.453  23.762418     0.7803      8.438   263.4893 1.3308e+02     1.1496      2.899      4.205    21.6745   997.8727 0.0000e+00
      2.961      0.029     7.8060     88.724     25.458  23.766508     0.8147      8.439   263.6698 1.4136e+02     1.1161      2.904      4.213    21.6718   997.8734 0.0000e+00
      2.963      0.029     7.8097     88.763     25.444  23.752214     0.8648      8.439   263.8190 1.4444e+02     1.0821      2.904      4.213    21.6711   997.8736 0.0000e+00
      2.969      0.030     7.8117     88.783     25.407  23.716454     0.8910      8.440   263.9165 1.4464e+02     1.1001      2.907      4.218    21.6709   997.8737 0.0000e+00
      2.981      0.034     7.8099     88.761     25.406  23.714724     0.8977      8.441   264.0735 1.3866e+02     1.1037      2.922      4.239    21.6727   997.8733 0.0000e+00
      2.993      0.039     7.8036     88.688     25.424  23.731298     0.8861      8.441   264.1691 1.3169e+02     1.0599      2.937      4.259    21.6730   997.8734 0.0000e+00
      3.001      0.043     7.7936     88.571     25.420  23.726552     0.8541      8.442   264.2982 1.2428e+02     1.0624      2.943      4.269    21.6697   997.8741 0.0000e+00
      3.010      0.044     7.7840     88.455     25.416  23.720776     0.8402      8.443   264.5158 1.1337e+02     1.1338      2.950      4.280    21.6673   997.8746 0.0000e+00
      3.022      0.042     7.7787     88.386     25.422  23.724885     0.8482      8.442   264.6488 1.0157e+02     1.1363      2.964      4.298    21.6670   997.8747 0.0000e+00
      3.036      0.039     7.7782     88.376     25.411  23.712795     0.8476      8.441   264.7024 8.8211e+01     1.0928      2.979      4.320    21.6676   997.8747 0.0000e+00
      3.048      0.037     7.7806     88.401     25.400  23.701461     0.8414      8.440   264.7325 7.4272e+01     1.0993      2.991      4.339    21.6663   997.8750 0.0000e+00
      3.057      0.037     7.7848     88.443     25.416  23.714715     0.8421      8.440   264.8408 6.3835e+01     1.1168      2.999      4.350    21.6611   997.8763 0.0000e+00
      3.062      0.037     7.7910     88.506     25.452  23.746179     0.8388      8.438   265.0661 6.1781e+01     1.1069      3.003      4.356    21.6561   997.8774 0.0000e+00
      3.068      0.040     7.7987     88.588     25.473  23.764726     0.8359      8.435   265.2195 6.7676e+01     1.0784      3.008      4.363    21.6540   997.8779 0.0000e+00
      3.077      0.046     7.8055     88.663     25.456  23.748666     0.8514      8.432   265.2331 7.3944e+01     1.0678      3.016      4.373    21.6529   997.8781 0.0000e+00
      3.090      0.054     7.8110     88.724     25.450  23.742290     0.8785      8.428   265.3159 7.5802e+01     1.1083      3.028      4.392    21.6495   997.8790 0.0000e+00
      3.106      0.064     7.8165     88.787     25.460  23.751062     0.8948      8.423   265.5329 7.3543e+01     1.1425      3.046      4.418    21.6445   997.8801 0.0000e+00
      3.125      0.073     7.8197     88.823     25.435  23.727868     0.8919      8.418   265.7056 7.0103e+01     1.1217      3.063      4.443    21.6409   997.8811 0.0000e+00
      3.146      0.078     7.8199     88.824     25.422  23.715583     0.8953      8.413   265.7687 6.6672e+01     1.1187      3.084      4.473    21.6395   997.8815 0.0000e+00
      3.167      0.080     7.8194     88.817     25.437  23.729393     0.9100      8.411   265.7804 6.2370e+01     1.1383      3.107      4.505    21.6395   997.8815 0.0000e+00
      3.190      0.079     7.8182     88.802     25.411  23.704545     0.9138      8.409   265.8469 5.9823e+01     1.1298      3.128      4.536    21.6393   997.8816 0.0000e+00
      3.212      0.076     7.8156     88.771     25.373  23.668879     0.9150      8.407   266.0559 6.0178e+01     1.1145      3.151      4.571    21.6392   997.8818 0.0000e+00
      3.232      0.073     7.8126     88.735     25.384  23.678742     0.8994      8.404   266.2438 6.0802e+01     1.1175      3.172      4.601    21.6388   997.8820 0.0000e+00
      3.247      0.070     7.8103     88.708     25.404  23.696939     0.8639      8.403   266.3122 6.0012e+01     1.1331      3.184      4.619    21.6381   997.8822 0.0000e+00
      3.261      0.069     7.8090     88.691     25.407  23.698599     0.8494      8.403   266.3664 5.8726e+01     1.1389      3.196      4.636    21.6373   997.8824 0.0000e+00
      3.279      0.071     7.8095     88.696     25.407  23.698802     0.8455      8.402   266.4684 5.8836e+01     1.1229      3.215      4.663    21.6363   997.8827 0.0000e+00
      3.297      0.074     7.8128     88.733     25.408  23.699398     0.8515      8.400   266.6862 5.8946e+01     1.1687      3.235      4.692    21.6353   997.8831 0.0000e+00
      3.315      0.076     7.8158     88.767     25.415  23.705803     0.8779      8.397   266.8480 5.7855e+01     1.2659      3.249      4.712    21.6340   997.8834 0.0000e+00
      3.337      0.073     7.8150     88.758     25.423  23.712818     0.8965      8.393   266.7901 5.7445e+01     1.3154      3.269      4.742    21.6332   997.8837 0.0000e+00
      3.362      0.065     7.8106     88.707     25.432  23.720777     0.9030      8.390   266.6737 5.7578e+01     1.3412      3.299      4.784    21.6330   997.8839 0.0000e+00
      3.382      0.055     7.8035     88.626     25.451  23.738602     0.8960      8.390   266.5594 5.7363e+01     1.3488      3.321      4.816    21.6328   997.8840 0.0000e+00
      3.395      0.043     7.7931     88.508     25.450  23.738044     0.8723      8.391   266.4400 5.7552e+01     1.3084      3.332      4.832    21.6325   997.8841 0.0000e+00
      3.400      0.028     7.7836     88.402     25.424  23.714035     0.8503      8.393   266.4351 5.7857e+01     1.2460      3.335      4.837    21.6319   997.8843 0.0000e+00
      3.402      0.015     7.7790     88.350     25.410  23.702040     0.8373      8.397   266.5865 5.8083e+01     1.1850      3.335      4.838    21.6314   997.8844 0.0000e+00
      3.403      0.006     7.7763     88.319     25.429  23.719873     0.8288      8.401   266.7215 5.8724e+01     1.1279      3.339      4.842    21.6316   997.8844 0.0000e+00
      3.403      0.003     7.7743     88.298     25.450  23.739357     0.8254      8.405   266.6905 5.9879e+01     1.1123      3.338      4.841    21.6323   997.8842 0.0000e+00
      3.402      0.005     7.7771     88.331     25.459  23.747325     0.8306      8.407   266.6425 6.0815e+01     1.1266      3.335      4.837    21.6327   997.8841 0.0000e+00
      3.401      0.011     7.7878     88.453     25.464  23.752775     0.8398      8.408   266.6575 6.1538e+01     1.1379      3.334      4.835    21.6328   997.8841 0.0000e+00
      3.401      0.021     7.8034     88.631     25.453  23.741828     0.8418      8.408   266.6132 6.2509e+01     1.1501      3.334      4.835    21.6331   997.8840 0.0000e+00
      3.406      0.031     7.8163     88.776     25.453  23.741819     0.8375      8.408   266.6237 6.2909e+01     1.1434      3.337      4.840    21.6338   997.8838 0.0000e+00
      3.417      0.040     7.8215     88.834     25.465  23.752670     0.8388      8.407   266.6977 6.2863e+01     1.1229      3.349      4.857    21.6346   997.8837 0.0000e+00
      3.434      0.048     7.8207     88.824     25.458  23.746170     0.8404      8.405   266.6475 6.3616e+01     1.1312      3.367      4.884    21.6351   997.8838 0.0000e+00
      3.450      0.054     7.8210     88.824     25.438  23.726658     0.8317      8.402   266.6193 6.4313e+01     1.1456      3.386      4.911    21.6353   997.8837 0.0000e+00
      3.464      0.059     7.8249     88.864     25.418  23.707047     0.8549      8.400   266.6144 6.3885e+01     1.1327      3.398      4.929    21.6344   997.8840 0.0000e+00
      3.475      0.061     7.8286     88.899     25.411  23.699345     0.9207      8.398   266.5031 6.3470e+01     1.1063      3.406      4.940    21.6333   997.8843 0.0000e+00
      3.490      0.064     7.8297     88.907     25.411  23.696960     0.9604      8.396   266.3925 6.3489e+01     1.0892      3.420      4.961    21.6327   997.8845 0.0000e+00
      3.510      0.068     7.8277     88.880     25.392  23.678211     0.9614      8.394   266.3094 6.3582e+01     1.0894      3.444      4.994    21.6314   997.8849 0.0000e+00
      3.528      0.069     7.8240     88.834     25.377  23.662955     0.9584      8.391   266.1861 6.3232e+01     1.0754      3.461      5.018    21.6294   997.8854 0.0000e+00
      3.546      0.069     7.8192     88.774     25.421  23.702788     0.9597      8.390   266.0198 6.2790e+01     1.0517      3.475      5.040    21.6249   997.8864 0.0000e+00
      3.568      0.068     7.8148     88.695     25.512  23.779235     0.9592      8.390   265.9335 6.2595e+01     1.0647      3.501      5.077    21.6222   997.8872 0.0000e+00
      3.586      0.068     7.8174     88.617     25.597  23.826071     0.9612      8.390   265.9170 6.2403e+01     1.1014      3.521      5.106    21.6197   997.8879 0.0000e+00
      3.597      0.068     7.8222     88.482     25.657  23.825006     0.9668      8.391   265.9071 6.3007e+01     1.1020      3.527      5.115    21.6185   997.8881 0.0000e+00
      3.610      0.068     7.8187     88.232     25.731  23.829719     0.9488      8.391   265.8995 6.3272e+01     1.1370      3.536      5.129    21.6143   997.8892 0.0000e+00
      3.630      0.068     7.8115     87.928     25.861  23.882960     0.9169      8.392   265.8251 6.2933e+01     1.2626      3.560      5.162    21.6167   997.8887 0.0000e+00
      3.652      0.070     7.8048     87.578     26.036  23.961188     0.9018      8.392   265.6953 6.1738e+01     1.3765      3.584      5.197    21.5590   997.9017 0.0000e+00
      3.670      0.072     7.7953     87.120     26.211  24.014248     0.8961      8.392   265.6213 5.8376e+01     1.3990      3.600      5.221    21.4201   997.9326 0.0000e+00
      3.686      0.070     7.7760     86.510     26.347  24.016896     0.9094      8.392   265.7045 5.5549e+01     1.3059      3.614      5.241    21.3038   997.9583 0.0000e+00
      3.706      0.063     7.7394     85.768     26.435  23.993034     0.9326      8.393   265.8415 5.4143e+01     1.2018      3.633      5.268    21.1818   997.9851 0.0000e+00
      3.726      0.054     7.6917     85.031     26.492  23.979330     0.9426      8.394   265.8144 5.3063e+01     1.1878      3.656      5.302    21.0285   998.0186 0.0000e+00
      3.742      0.047     7.6478     84.436     26.529  23.977984     0.9520      8.395   265.7213 5.2499e+01     1.1693      3.673      5.327    20.8223   998.0633 0.0000e+00
      3.749      0.041     7.6170     84.029     26.551  23.976714     0.9421      8.397   265.7476 5.1026e+01     1.1099      3.678      5.334    20.5594   998.1195 0.0000e+00
      3.753      0.036     7.5999     83.784     26.556  23.963945     0.9094      8.400   265.7883 4.7609e+01     1.0920      3.678      5.335    20.3452   998.1646 0.0000e+00
      3.759      0.035     7.5964     83.692     26.561  23.950438     0.8945      8.403   265.8700 4.4012e+01     1.1162      3.685      5.345    20.2311   998.1886 0.0000e+00
      3.767      0.040     7.6036     83.726     26.566  23.940252     0.9005      8.404   266.1327 4.1583e+01     1.1407      3.694      5.358    20.1815   998.1990 0.0000e+00
      3.777      0.052     7.6143     83.815     26.536  23.904193     0.8874      8.402   266.3836 4.1315e+01     1.1926      3.703      5.370    20.1467   998.2063 0.0000e+00
      3.789      0.067     7.6295     83.932     26.473  23.831604     0.8484      8.398   266.4947 4.4803e+01     1.2514      3.715      5.388    20.1141   998.2132 0.0000e+00
      3.805      0.080     7.6500     84.030     26.439  23.760334     0.8372      8.396   266.6157 5.0678e+01     1.2947      3.729      5.410    20.0817   998.2200 0.0000e+00
      3.830      0.090     7.6677     84.045     26.479  23.740176     0.8730      8.395   266.8137 5.6164e+01     1.3557      3.752      5.441    20.0470   998.2272 0.0000e+00
      3.862      0.096     7.6793     83.988     26.516  23.714668     1.1242      8.393   267.0822 5.9879e+01     1.3666      3.787      5.492    20.0384   998.2291 0.0000e+00
      3.893      0.097     7.6939     83.929     26.512  23.642134     1.5867      8.390   267.3676 6.1344e+01     1.3281      3.821      5.543    20.0308   998.2308 0.0000e+00
      3.918      0.091     7.7194     83.930     26.590  23.624278     1.8519      8.387   267.6822 6.2603e+01     1.3157      3.844      5.575    19.9413   998.2493 0.0000e+00
      3.938      0.079     7.7493     84.011     26.750  23.688947     1.8869      8.385   268.0468 6.5639e+01     1.3144      3.861      5.599    19.8187   998.2746 0.0000e+00
      3.958      0.064     7.7700     84.161     26.819  23.726172     1.9310      8.386   268.4205 6.8892e+01     1.3131      3.882      5.630    19.7198   998.2949 0.0000e+00
      3.974      0.053     7.7892     84.430     26.760  23.693737     2.4626      8.387   268.7594 7.1072e+01     1.3658      3.902      5.659    19.6037   998.3185 0.0000e+00
      3.983      0.046     7.8314     84.901     26.736  23.677409     3.4595      8.388   269.0462 7.1055e+01     1.4926      3.909      5.670    19.4195   998.3555 0.0000e+00
      3.987      0.041     7.8914     85.491     26.805  23.719059     4.0149      8.388   269.3930 6.8950e+01     1.6005      3.907      5.667    19.2267   998.3940 0.0000e+00
      3.994      0.039     7.9397     86.023     26.841  23.753264     4.0888      8.388   269.7696 6.6746e+01     1.6223      3.914      5.675    19.1898   998.4013 0.0000e+00
      4.007      0.039     7.9723     86.498     26.821  23.773819     4.2050      8.389   270.1579 6.5326e+01     1.5916      3.931      5.702    19.2895   998.3816 0.0000e+00
      4.021      0.041     8.0038     86.997     26.771  23.777347     4.3974      8.391   270.4744 6.4865e+01     1.5566      3.945      5.722    19.3045   998.3787 0.0000e+00
      4.031      0.043     8.0401     87.497     26.684  23.732554     4.5064      8.392   270.4985 6.5272e+01     1.5605      3.952      5.730    19.2131   998.3969 0.0000e+00
      4.041      0.043     8.0776     87.884     26.628  23.676304     4.5441      8.392   270.4503 6.8260e+01     1.6058      3.962      5.745    19.2149   998.3966 0.0000e+00
      4.051      0.045     8.1049     88.034     26.597  23.604679     4.8705      8.392   270.5795 7.2387e+01     1.6456      3.974      5.764    19.3102   998.3777 0.0000e+00
      4.061      0.049     8.1175     87.937     26.559  23.500805     5.4710      8.393   270.7709 7.1713e+01     1.7137      3.984      5.777    19.4116   998.3575 0.0000e+00
      4.071      0.055     8.1227     87.669     26.524  23.371769     5.8047      8.393   271.0426 6.7931e+01     1.8067      3.991      5.786    19.4967   998.3405 0.0000e+00
      4.086      0.062     8.1223     87.262     26.450  23.186161     5.8704      8.392   271.4554 6.5969e+01     1.8523      4.004      5.807    19.4798   998.3439 0.0000e+00
      4.106      0.070     8.1178     86.747     26.362  22.969129     6.1360      8.391   271.8906 6.6370e+01     1.9047      4.027      5.842    19.3806   998.3639 0.0000e+00
      4.126      0.080     8.1143     86.197     26.318  22.777254     6.5972      8.391   272.2606 6.7638e+01     1.9816      4.048      5.870    19.2589   998.3882 0.0000e+00
      4.144      0.087     8.1180     85.741     26.333  22.642056     6.8517      8.391   272.5733 6.6281e+01     1.9952      4.062      5.890    19.0676   998.4260 0.0000e+00
      4.167      0.089     8.1390     85.540     26.434  22.602876     7.0012      8.391   272.9188 6.3133e+01     2.0042      4.085      5.923    18.8390   998.4707 0.0000e+00
      4.195      0.087     8.1828     85.683     26.565  22.620515     8.4049      8.392   273.2536 6.0493e+01     2.0902      4.114      5.967    18.5758   998.5213 0.0000e+00
      4.223      0.083     8.2475     86.169     26.610  22.601486    10.9579      8.392   273.5237 5.9224e+01     2.1831      4.143      6.009    18.2654   998.5803 0.0000e+00
      4.245      0.078     8.3320     86.951     26.525  22.499587    12.3459      8.392   273.6897 5.9459e+01     2.2422      4.167      6.043    17.9728   998.6348 0.0000e+00
      4.260      0.072     8.4389     87.953     26.450  22.403306    12.4769      8.393   273.7132 5.8551e+01     2.2472      4.179      6.062    17.7313   998.6792 0.0000e+00
      4.273      0.066     8.5585     89.036     26.488  22.388760    12.5321      8.395   273.8928 5.7038e+01     2.2115      4.189      6.076    17.5442   998.7132 0.0000e+00
      4.287      0.063     8.6699     90.048     26.535  22.387070    13.0056      8.397   274.2264 5.6356e+01     2.2364      4.203      6.096    17.4381   998.7322 0.0000e+00
      4.304      0.063     8.7666     90.955     26.487  22.319391    13.8663      8.399   274.3909 5.5673e+01     2.2862      4.221      6.122    17.4151   998.7364 0.0000e+00
      4.321      0.065     8.8578     91.782     26.390  22.204719    14.3378      8.399   274.5061 5.5694e+01     2.2887      4.238      6.147    17.3648   998.7454 0.0000e+00
      4.338      0.066     8.9421     92.475     26.375  22.142252    14.4239      8.399   274.7582 5.5619e+01     2.3003      4.253      6.168    17.2504   998.7657 0.0000e+00
      4.355      0.064     9.0007     92.921     26.418  22.134908    14.8909      8.400   275.0303 5.4333e+01     2.3605      4.270      6.194    17.1620   998.7814 0.0000e+00
      4.374      0.061     9.0288     93.132     26.421  22.115866    15.7444      8.400   275.3005 5.2950e+01     2.4268      4.289      6.222    17.1326   998.7866 0.0000e+00
      4.391      0.059     9.0437     93.229     26.347  22.038840    16.2117      8.400   275.6168 5.1735e+01     2.4462      4.307      6.247    17.0859   998.7948 0.0000e+00
      4.404      0.059     9.0588     93.270     26.219  21.901287    16.2241      8.402   275.8430 5.0059e+01     2.4317      4.321      6.268    16.9671   998.8155 0.0000e+00
      4.413      0.060     9.0734     93.233     26.139  21.784662    15.8246      8.404   275.9708 4.7790e+01     2.3821      4.327      6.275    16.8651   998.8332 0.0000e+00
      4.424      0.064     9.0811     93.087     26.119  21.706944    15.0741      8.406   276.0439 4.6348e+01     2.3054      4.335      6.288    16.8458   998.8366 0.0000e+00
      4.442      0.071     9.0814     92.865     26.058  21.595796    14.6590      8.407   276.1242 4.7703e+01     2.2588      4.355      6.317    16.8326   998.8389 0.0000e+00
      4.465      0.079     9.0824     92.640     25.963  21.455541    14.5940      8.408   276.3402 5.0077e+01     2.2439      4.377      6.350    16.7765   998.8486 0.0000e+00
      4.487      0.087     9.0905     92.450     25.914  21.343010    14.2875      8.410   276.5905 5.0124e+01     2.2240      4.400      6.382    16.6732   998.8663 0.0000e+00
      4.510      0.092     9.1050     92.278     25.904  21.249923    13.7283      8.413   276.7408 4.9186e+01     2.2143      4.421      6.413    16.5465   998.8879 0.0000e+00
      4.535      0.095     9.1239     92.139     25.894  21.154470    13.4155      8.415   276.8665 4.8937e+01     2.2257      4.447      6.450    16.4348   998.9067 0.0000e+00
      4.561      0.095     9.1473     92.068     25.898  21.076743    13.3490      8.416   277.0778 4.8520e+01     2.2304      4.476      6.491    16.3249   998.9251 0.0000e+00
      4.585      0.092     9.1782     92.109     25.900  21.007708    13.0377      8.416   277.2309 5.0094e+01     2.2054      4.497      6.523    16.1860   998.9481 0.0000e+00
      4.609      0.086     9.2193     92.296     25.907  20.953943    12.4863      8.415   277.2558 5.1745e+01     2.1207      4.518      6.553    16.0146   998.9762 0.0000e+00
      4.634      0.077     9.2702     92.627     25.940  20.933999    12.1881      8.415   277.2916 4.9015e+01     2.0582      4.545      6.592    15.8385   999.0048 0.0000e+00
      4.654      0.068     9.3309     93.100     25.932  20.893369    12.1548      8.416   277.4053 4.6237e+01     2.0713      4.567      6.624    15.6807   999.0301 0.0000e+00
      4.669      0.060     9.3996     93.683     25.903  20.843193    12.1353      8.417   277.5119 4.5585e+01     2.0837      4.580      6.643    15.5440   999.0517 0.0000e+00
      4.679      0.052     9.4737     94.324     25.924  20.834679    12.0126      8.418   277.4626 4.5363e+01     2.1419      4.589      6.656    15.4282   999.0699 0.0000e+00
      4.689      0.045     9.5482     94.965     25.979  20.853829    11.7903      8.418   277.4117 4.4637e+01     2.2511      4.598      6.669    15.3390   999.0838 0.0000e+00
      4.701      0.039     9.6114     95.515     26.042  20.884431    11.6584      8.417   277.4991 4.3322e+01     2.2893      4.610      6.685    15.2743   999.0938 0.0000e+00
      4.712      0.035     9.6562     95.939     26.052  20.887534    11.5707      8.417   277.6592 4.2530e+01     2.2759      4.622      6.703    15.2286   999.1009 0.0000e+00
      4.721      0.034     9.6856     96.270     25.966  20.827919    10.7814      8.418   277.7991 4.2880e+01     2.2206      4.630      6.715    15.1845   999.1077 0.0000e+00
      4.727      0.035     9.7076     96.522     25.839  20.734469     9.3204      8.419   277.8135 4.2938e+01     2.0796      4.636      6.724    15.1275   999.1164 0.0000e+00
      4.732      0.036     9.7287     96.670     25.747  20.645586     8.5144      8.419   277.7473 4.2292e+01     1.9799      4.640      6.731    15.0837   999.1231 0.0000e+00
      4.739      0.039     9.7444     96.657     25.715  20.577746     8.4484      8.419   277.6867 4.2537e+01     1.9983      4.646      6.738    15.0700   999.1251 0.0000e+00
      4.751      0.044     9.7473     96.464     25.746  20.548397     8.4451      8.420   277.6823 4.1657e+01     2.0399      4.658      6.755    15.1002   999.1206 0.0000e+00
      4.766      0.050     9.7393     96.161     25.811  20.544362     8.4219      8.420   277.7805 4.0227e+01     2.0566      4.675      6.780    15.1408   999.1145 0.0000e+00
      4.781      0.056     9.7240     95.827     25.849  20.528890     8.3848      8.420   277.8425 3.9477e+01     2.0369      4.689      6.801    15.1093   999.1193 0.0000e+00
      4.794      0.062     9.7033     95.515     25.831  20.488119     8.3170      8.420   277.7426 3.8531e+01     1.9977      4.700      6.817    15.0147   999.1336 0.0000e+00
      4.809      0.067     9.6821     95.244     25.780  20.431918     7.8024      8.420   277.6917 3.8449e+01     2.0085      4.714      6.837    14.9017   999.1507 0.0000e+00
      4.827      0.071     9.6682     95.025     25.710  20.356740     6.8704      8.419   277.8292 3.8513e+01     2.0371      4.733      6.865    14.7883   999.1677 0.0000e+00
      4.847      0.073     9.6642     94.842     25.655  20.276780     6.3603      8.418   278.0287 3.8013e+01     2.0166      4.752      6.892    14.6898   999.1824 0.0000e+00
      4.868      0.073     9.6692     94.670     25.661  20.226163     6.2979      8.417   278.0384 3.7385e+01     1.9887      4.773      6.922    14.6439   999.1892 0.0000e+00
      4.889      0.070     9.6792     94.511     25.694  20.188623     6.1069      8.418   277.7749 3.5874e+01     1.9627      4.795      6.955    14.6304   999.1913 0.0000e+00
      4.909      0.064     9.6872     94.368     25.702  20.139922     5.6644      8.419   277.5099 3.4344e+01     1.8984      4.815      6.983    14.5938   999.1966 0.0000e+00
      4.924      0.059     9.6923     94.267     25.675  20.081214     5.2821      8.420   277.3289 3.4043e+01     1.8344      4.830      7.005    14.5317   999.2057 0.0000e+00
      4.935      0.054     9.7003     94.247     25.666  20.049554     5.1607      8.421   277.2215 3.3744e+01     1.7787      4.840      7.020    14.4153   999.2226 0.0000e+00
      4.945      0.052     9.7202     94.340     25.729  20.074209     5.1512      8.421   277.2439 3.2713e+01     1.7492      4.849      7.033    14.2736   999.2429 0.0000e+00
      4.956      0.052     9.7551     94.565     25.831  20.125599     5.1758      8.421   277.2553 3.1699e+01     1.8376      4.860      7.049    14.1625   999.2586 0.0000e+00
      4.970      0.055     9.8021     94.922     25.911  20.163491     5.2233      8.421   277.2734 3.0405e+01     1.9955      4.872      7.067    14.0925   999.2685 0.0000e+00
      4.985      0.060     9.8613     95.400     25.926  20.151795     5.2483      8.421   277.2907 2.9066e+01     2.0860      4.888      7.089    14.0588   999.2733 0.0000e+00
      5.001      0.064     9.9324     95.942     25.920  20.111009     5.2442      8.422   277.2061 2.8509e+01     2.0796      4.906      7.115    14.0136   999.2797 0.0000e+00
      5.018      0.068    10.0079     96.459     25.990  20.114267     5.1045      8.424   277.1971 2.8509e+01     2.0495      4.921      7.137    13.9474   999.2890 0.0000e+00
      5.036      0.070    10.0641     96.807     26.069  20.127695     4.8336      8.425   277.2686 2.8899e+01     2.0490      4.937      7.162    13.9030   999.2952 0.0000e+00
      5.056      0.071    10.0816     96.889     26.038  20.083041     4.6745      8.424   277.2958 2.9371e+01     2.0407      4.959      7.193    13.8703   999.2998 0.0000e+00
      5.075      0.071    10.0745     96.764     25.972  20.018303     4.6457      8.423   277.2682 2.9477e+01     2.0157      4.979      7.221    13.8080   999.3084 0.0000e+00
      5.091      0.071    10.0597     96.478     25.967  19.979160     4.6062      8.421   277.1922 2.9102e+01     2.0086      4.994      7.242    13.6927   999.3241 0.0000e+00
      5.108      0.068    10.0321     96.018     26.044  19.990255     4.5441      8.421   277.1519 2.8477e+01     2.0200      5.009      7.264    13.5717   999.3405 0.0000e+00
      5.128      0.063     9.9893     95.465     26.136  20.025550     4.5109      8.422   277.1250 2.8230e+01     2.0222      5.028      7.293    13.5530   999.3431 0.0000e+00
      5.148      0.058     9.9414     94.944     26.156  20.025331     4.5078      8.424   277.1254 2.8592e+01     2.0023      5.050      7.324    13.5602   999.3422 0.0000e+00
      5.162      0.054     9.9057     94.554     26.122  19.987591     4.5589      8.425   277.2422 2.9002e+01     1.9772      5.065      7.346    13.4776   999.3533 0.0000e+00
      5.171      0.050     9.8913     94.328     26.102  19.949766     4.6610      8.425   277.4181 2.9407e+01     1.9807      5.071      7.355    13.3624   999.3685 0.0000e+00
      5.179      0.045     9.8894     94.195     26.138  19.948504     4.7110      8.423   277.6175 2.9569e+01     2.0107      5.077      7.365    13.2904   999.3780 0.0000e+00
      5.190      0.040     9.8882     94.106     26.193  19.972295     4.7118      8.421   277.7604 2.9205e+01     2.0129      5.089      7.381    13.2771   999.3798 0.0000e+00
      5.205      0.037     9.8853     94.079     26.208  19.983711     4.7146      8.420   277.8563 2.9013e+01     2.0070      5.104      7.403    13.2646   999.3814 0.0000e+00
      5.217      0.037     9.8876     94.121     26.170  19.959692     4.7182      8.420   278.0025 2.8900e+01     2.1030      5.118      7.424    13.2187   999.3874 0.0000e+00
      5.223      0.035     9.8958     94.181     26.145  19.935580     4.7205      8.420   278.1505 2.8875e+01     2.2566      5.123      7.430    13.1518   999.3960 0.0000e+00
      5.228      0.032     9.8988     94.185     26.167  19.945853     4.7159      8.419   278.3555 2.9228e+01     2.2901      5.125      7.432    13.1023   999.4025 0.0000e+00
      5.236      0.029     9.8908     94.116     26.179  19.957046     4.7062      8.418   278.5886 2.9376e+01     2.2468      5.135      7.448    13.1176   999.4006 0.0000e+00
      5.246      0.029     9.8824     94.044     26.159  19.944072     4.6813      8.420   278.7324 2.9359e+01     2.2568      5.146      7.464    13.1441   999.3972 0.0000e+00
      5.252      0.033     9.8842     93.995     26.144  19.915834     4.6398      8.422   278.8028 2.9148e+01     2.2798      5.151      7.471    13.1225   999.4000 0.0000e+00
      5.257      0.038     9.8923     93.902     26.139  19.869303     4.6120      8.423   278.9235 2.8565e+01     2.2635      5.155      7.476    13.0999   999.4029 0.0000e+00
      5.266      0.043     9.8970     93.724     26.154  19.825373     4.6142      8.423   279.1595 2.8284e+01     2.2557      5.162      7.488    13.1124   999.4013 0.0000e+00
      5.279      0.048     9.8925     93.474     26.226  19.828567     4.7018      8.423   279.4199 2.7969e+01     2.3498      5.176      7.508    13.1321   999.3989 0.0000e+00
      5.294      0.054     9.8763     93.165     26.299  19.844440     4.8561      8.424   279.6623 2.7305e+01     2.5167      5.192      7.530    13.1079   999.4020 0.0000e+00
      5.309      0.061     9.8505     92.813     26.312  19.826983     4.9371      8.424   279.8533 2.6656e+01     2.6020      5.204      7.548    13.0135   999.4141 0.0000e+00
      5.324      0.066     9.8167     92.398     26.319  19.807730     4.9526      8.422   280.0946 2.5894e+01     2.6266      5.221      7.573    12.8945   999.4292 0.0000e+00
      5.341      0.070     9.7733     91.877     26.349  19.801885     5.0170      8.419   280.4281 2.5004e+01     2.7166      5.239      7.598    12.7900   999.4423 0.0000e+00
      5.360      0.074     9.7223     91.256     26.337  19.756281     5.1260      8.417   280.7029 2.4368e+01     2.8376      5.255      7.621    12.7164   999.4514 0.0000e+00
      5.380      0.075     9.6677     90.576     26.320  19.700256     5.1874      8.414   280.9216 2.4085e+01     2.8781      5.276      7.652    12.6721   999.4570 0.0000e+00
      5.400      0.073     9.6072     89.836     26.373  19.695226     5.2044      8.412   281.0946 2.3630e+01     2.8456      5.296      7.681    12.6320   999.4620 0.0000e+00
      5.422      0.069     9.5393     89.068     26.420  19.695417     5.3142      8.412   281.1593 2.2987e+01     2.9021      5.316      7.710    12.5780   999.4687 0.0000e+00
      5.442      0.065     9.4663     88.307     26.458  19.702524     5.5267      8.413   281.1883 2.2402e+01     3.0701      5.340      7.745    12.5088   999.4771 0.0000e+00
      5.457      0.061     9.3893     87.533     26.498  19.717723     5.6573      8.413   281.3580 2.2051e+01     3.1732      5.354      7.765    12.4251   999.4873 0.0000e+00
      5.467      0.057     9.3173     86.813     26.477  19.688904     5.6708      8.414   281.5765 2.1986e+01     3.1656      5.360      7.774    12.3280   999.4989 0.0000e+00
      5.477      0.053     9.2584     86.207     26.474  19.671171     5.6470      8.415   281.6793 2.1761e+01     3.1423      5.370      7.789    12.2602   999.5069 0.0000e+00
      5.491      0.049     9.2141     85.717     26.532  19.693561     5.4388      8.415   281.7401 2.1177e+01     3.1859      5.384      7.810    12.2275   999.5108 0.0000e+00
      5.507      0.046     9.1833     85.355     26.577  19.705896     5.0612      8.415   281.7954 2.0612e+01     3.2669      5.401      7.834    12.2024   999.5138 0.0000e+00
      5.522      0.044     9.1696     85.190     26.574  19.693461     4.8529      8.415   281.9187 2.0090e+01     3.3025      5.418      7.857    12.1786   999.5166 0.0000e+00
      5.532      0.041     9.1797     85.276     26.546  19.670035     4.8188      8.415   282.1117 1.9589e+01     3.3210      5.426      7.871    12.1555   999.5194 0.0000e+00
      5.537      0.038     9.2116     85.577     26.552  19.676344     4.7179      8.415   282.2369 1.9527e+01     3.3268      5.429      7.874    12.1115   999.5245 0.0000e+00
      5.545      0.034     9.2612     86.059     26.585  19.706314     4.5440      8.415   282.3134 1.9737e+01     3.3074      5.435      7.883    12.0589   999.5305 0.0000e+00
      5.555      0.032     9.3188     86.648     26.577  19.715299     4.4496      8.414   282.4351 1.9920e+01     3.3154      5.448      7.901    12.0463   999.5321 0.0000e+00
      5.566      0.031     9.3750     87.266     26.551  19.721574     4.4437      8.414   282.5898 2.0202e+01     3.3259      5.460      7.920    12.0449   999.5323 0.0000e+00
      5.574      0.032     9.4295     87.875     26.511  19.718795     4.4724      8.414   282.7211 2.0509e+01     3.3026      5.467      7.929    12.0467   999.5322 0.0000e+00
      5.579      0.033     9.4800     88.405     26.440  19.681731     4.5287      8.414   282.8176 2.0861e+01     3.2965      5.470      7.934    12.0557   999.5312 0.0000e+00
      5.585      0.036     9.5202     88.781     26.402  19.653980     4.5604      8.412   282.7240 2.0971e+01     3.3177      5.476      7.943    12.0757   999.5288 0.0000e+00
      5.593      0.039     9.5469     88.951     26.407  19.636941     4.5690      8.410   282.5355 2.0741e+01     3.3292      5.484      7.954    12.1342   999.5222 0.0000e+00
      5.604      0.043     9.5613     88.914     26.421  19.602544     4.6330      8.410   282.6044 2.0574e+01     3.4031      5.494      7.969    12.1969   999.5149 0.0000e+00
      5.619      0.048     9.5640     88.723     26.434  19.555140     4.7539      8.409   282.7821 2.0527e+01     3.5221      5.510      7.991    12.2252   999.5116 0.0000e+00
      5.634      0.052     9.5535     88.414     26.445  19.507669     4.8252      8.409   282.8774 2.0548e+01     3.5561      5.527      8.016    12.2296   999.5112 0.0000e+00
      5.646      0.055     9.5275     87.988     26.464  19.472462     4.8365      8.409   282.9828 2.0475e+01     3.5524      5.537      8.031    12.1988   999.5149 0.0000e+00
      5.659      0.056     9.4903     87.490     26.484  19.446508     4.8296      8.409   283.1096 2.0294e+01     3.5756      5.548      8.046    12.1004   999.5264 0.0000e+00
      5.674      0.056     9.4518     87.001     26.534  19.447493     4.6894      8.409   283.2060 2.0099e+01     3.5745      5.564      8.070    11.9839   999.5397 0.0000e+00
      5.691      0.058     9.4213     86.604     26.627  19.484336     4.4246      8.409   283.2013 2.0027e+01     3.5387      5.582      8.097    11.8761   999.5520 0.0000e+00
      5.706      0.061     9.4056     86.356     26.702  19.511412     4.2728      8.409   283.1386 2.0034e+01     3.5041      5.597      8.117    11.7821   999.5627 0.0000e+00
      5.719      0.063     9.4073     86.271     26.752  19.521155     4.2500      8.407   283.1367 1.9954e+01     3.4836      5.608      8.133    11.7093   999.5708 0.0000e+00
      5.734      0.064     9.4282     86.362     26.814  19.538683     4.2360      8.406   283.2639 1.9779e+01     3.5525      5.621      8.153    11.6402   999.5785 0.0000e+00
      5.752      0.063     9.4664     86.620     26.840  19.533055     4.2155      8.406   283.3866 1.9492e+01     3.7155      5.640      8.180    11.5828   999.5849 0.0000e+00
      5.772      0.059     9.5131     86.971     26.845  19.516495     4.2016      8.405   283.3293 1.9185e+01     3.8149      5.660      8.210    11.5334   999.5902 0.0000e+00
      5.789      0.053     9.5559     87.310     26.881  19.528705     4.1887      8.404   283.2592 1.8934e+01     3.8029      5.679      8.236    11.4830   999.5958 0.0000e+00
      5.802      0.046     9.5854     87.560     26.924  19.553826     4.1212      8.404   283.2275 1.8771e+01     3.7675      5.692      8.255    11.4306   999.6015 0.0000e+00
      5.812      0.038     9.5991     87.685     26.941  19.566550     4.0174      8.404   283.2043 1.8554e+01     3.7803      5.701      8.268    11.3822   999.6067 0.0000e+00
      5.818      0.034     9.5969     87.656     26.929  19.555705     3.9657      8.404   283.2368 1.8348e+01     3.8264      5.706      8.276    11.3447   999.6107 0.0000e+00
      5.822      0.034     9.5795     87.461     26.933  19.549540     3.9470      8.404   283.1909 1.8119e+01     3.8339      5.709      8.280    11.3154   999.6139 0.0000e+00
      5.827      0.038     9.5457     87.095     26.963  19.555423     3.8779      8.402   283.0798 1.7697e+01     3.8375      5.713      8.286    11.3060   999.6149 0.0000e+00
      5.835      0.044     9.5026     86.631     27.000  19.563393     3.7724      8.400   283.0118 1.7265e+01     3.9365      5.720      8.296    11.3145   999.6140 0.0000e+00
      5.850      0.050     9.4622     86.196     27.052  19.582464     3.7203      8.399   282.9703 1.6655e+01     4.0472      5.736      8.319    11.3120   999.6144 0.0000e+00
      5.869      0.055     9.4226     85.777     27.093  19.595720     3.7073      8.400   282.9221 1.5838e+01     4.0616      5.756      8.349    11.2941   999.6163 0.0000e+00
      5.886      0.059     9.3760     85.298     27.115  19.596815     3.6497      8.401   282.8596 1.5203e+01     4.1112      5.774      8.373    11.2625   999.6196 0.0000e+00
      5.900      0.062     9.3183     84.719     27.133  19.595684     3.5621      8.401   282.8161 1.4896e+01     4.2203      5.786      8.392    11.2246   999.6237 0.0000e+00
      5.912      0.064     9.2455     84.004     27.135  19.582027     3.5233      8.400   282.9130 1.4832e+01     4.2339      5.797      8.408    11.1908   999.6273 0.0000e+00
      5.927      0.067     9.1536     83.114     27.124  19.558514     3.5268      8.398   283.0849 1.4829e+01     4.2101      5.811      8.428    11.1612   999.6304 0.0000e+00
      5.946      0.069     9.0412     82.036     27.156  19.565059     3.5178      8.396   283.1738 1.4797e+01     4.2276      5.831      8.456    11.1345   999.6333 0.0000e+00
      5.966      0.070     8.9151     80.834     27.226  19.597722     3.4059      8.394   283.2136 1.4675e+01     4.2817      5.850      8.484    11.1076   999.6361 0.0000e+00
      5.987      0.069     8.7959     79.699     27.301  19.636318     3.2052      8.394   283.2219 1.4440e+01     4.4043      5.872      8.516    11.0797   999.6391 0.0000e+00
      6.007      0.065     8.6996     78.782     27.428  19.714597     3.0944      8.395   283.2734 1.4278e+01     4.4980      5.893      8.546    11.0518   999.6420 0.0000e+00
      6.023      0.060     8.6240     78.061     27.539  19.783108     3.0716      8.395   283.4063 1.4223e+01     4.4971      5.907      8.568    11.0215   999.6452 0.0000e+00
      6.036      0.054     8.5645     77.491     27.529  19.767024     2.9125      8.395   283.5385 1.4206e+01     4.5250      5.919      8.586    10.9887   999.6486 0.0000e+00
      6.047      0.049     8.5157     77.026     27.461  19.710380     2.6107      8.395   283.5815 1.4199e+01     4.6050      5.930      8.602    10.9586   999.6516 0.0000e+00
      6.057      0.045     8.4667     76.570     27.409  19.669021     2.4395      8.395   283.5818 1.4134e+01     4.6460      5.940      8.616    10.9345   999.6542 0.0000e+00
      6.068      0.042     8.4081     76.050     27.375  19.647481     2.4208      8.395   283.7143 1.4030e+01     4.6609      5.951      8.631    10.9148   999.6563 0.0000e+00
      6.080      0.039     8.3337     75.415     27.348  19.640215     2.4363      8.394   283.8931 1.3897e+01     4.7840      5.963      8.649    10.8983   999.6580 0.0000e+00
      6.091      0.037     8.2469     74.678     27.332  19.644595     2.4698      8.393   284.0223 1.3760e+01     5.0203      5.974      8.665    10.8840   999.6595 0.0000e+00
      6.100      0.034     8.1609     73.937     27.305  19.637045     2.4886      8.391   284.1578 1.3677e+01     5.1583      5.983      8.678    10.8735   999.6605 0.0000e+00
      6.107      0.031     8.0899     73.315     27.261  19.612360     2.4900      8.389   284.2415 1.3602e+01     5.1746      5.989      8.687    10.8765   999.6603 0.0000e+00
      6.113      0.027     8.0408     72.892     27.234  19.599826     2.5212      8.389   284.2595 1.3433e+01     5.3487      5.995      8.695    10.9031   999.6576 0.0000e+00
      6.121      0.026     8.0142     72.678     27.239  19.612347     2.5877      8.390   284.2895 1.3244e+01     5.6906      6.003      8.706    10.9383   999.6542 0.0000e+00
      6.127      0.027     8.0162     72.703     27.270  19.636916     2.6182      8.390   284.3465 1.3109e+01     5.8344      6.009      8.715    10.9611   999.6519 0.0000e+00
      6.132      0.030     8.0472     72.956     27.292  19.643206     2.6129      8.390   284.4316 1.2983e+01     5.8088      6.014      8.722    10.9683   999.6511 0.0000e+00
      6.138      0.035     8.0929     73.331     27.284  19.624966     2.6710      8.390   284.5443 1.2790e+01     6.0367      6.019      8.730    10.9765   999.6504 0.0000e+00
      6.146      0.042     8.1429     73.737     27.279  19.606623     2.7919      8.389   284.7627 1.2478e+01     6.4918      6.026      8.741    11.0029   999.6477 0.0000e+00
      6.156      0.050     8.1948     74.134     27.319  19.611668     2.8608      8.388   285.0932 1.2163e+01     6.7572      6.036      8.755    11.0123   999.6468 0.0000e+00
      6.171      0.059     8.2405     74.456     27.374  19.622527     2.8625      8.386   285.2722 1.1871e+01     6.7875      6.050      8.774    10.9849   999.6496 0.0000e+00
      6.189      0.066     8.2702     74.639     27.396  19.611046     2.8557      8.385   285.2914 1.1575e+01     6.7591      6.069      8.802    10.9613   999.6521 0.0000e+00
      6.209      0.071     8.2798     74.654     27.411  19.599660     2.8738      8.383   285.4124 1.1298e+01     6.8404      6.089      8.832    10.9422   999.6542 0.0000e+00
      6.229      0.073     8.2659     74.469     27.454  19.611679     2.9081      8.383   285.7019 1.1018e+01     7.0494      6.110      8.860    10.8970   999.6587 0.0000e+00
      6.249      0.070     8.2232     74.036     27.501  19.629502     2.9238      8.382   286.0377 1.0773e+01     7.1550      6.129      8.888    10.8374   999.6648 0.0000e+00
      6.268      0.064     8.1488     73.332     27.511  19.624882     2.9249      8.380   286.2033 1.0558e+01     7.1675      6.146      8.915    10.7861   999.6699 0.0000e+00
      6.285      0.057     8.0470     72.397     27.511  19.619231     2.9391      8.380   286.1557 1.0376e+01     7.2993      6.164      8.941    10.7469   999.6738 0.0000e+00
      6.298      0.051     7.9265     71.311     27.520  19.624587     2.9655      8.379   286.0651 1.0218e+01     7.5356      6.179      8.962    10.7123   999.6773 0.0000e+00
      6.307      0.046     7.7970     70.155     27.518  19.626207     2.9831      8.377   286.0538 1.0033e+01     7.6651      6.186      8.971    10.6829   999.6802 0.0000e+00
      6.316      0.043     7.6682     69.009     27.529  19.638835     2.9964      8.376   286.1045 9.8094e+00     7.6854      6.193      8.982    10.6620   999.6822 0.0000e+00
      6.326      0.041     7.5493     67.948     27.541  19.650431     3.0749      8.375   286.0762 9.6186e+00     7.8794      6.204      8.998    10.6516   999.6833 0.0000e+00
      6.336      0.039     7.4477     67.036     27.525  19.639577     3.2114      8.374   286.0556 9.5030e+00     8.2739      6.213      9.010    10.6504   999.6835 0.0000e+00
      6.348      0.035     7.3700     66.332     27.519  19.634441     3.2774      8.374   286.2861 9.4414e+00     8.5227      6.225      9.029    10.6578   999.6828 0.0000e+00
      6.361      0.030     7.3185     65.867     27.544  19.651747     3.2928      8.373   286.6263 9.4524e+00     8.5609      6.239      9.050    10.6687   999.6818 0.0000e+00
      6.369      0.024     7.2868     65.587     27.551  19.658562     3.3791      8.373   286.7270 9.5265e+00     8.5063      6.248      9.062    10.6732   999.6815 0.0000e+00
      6.372      0.016     7.2663     65.407     27.542  19.653416     3.5144      8.373   286.6436 9.6395e+00     8.3866      6.249      9.063    10.6768   999.6811 0.0000e+00
      6.372      0.010     7.2506     65.267     27.540  19.652949     3.5853      8.372   286.6505 9.7437e+00     8.3258      6.248      9.062    10.6696   999.6819 0.0000e+00
      6.373      0.008     7.2370     65.138     27.543  19.652910     3.5861      8.372   286.7245 9.8139e+00     8.3612      6.250      9.064    10.6678   999.6821 0.0000e+00
      6.373      0.010     7.2237     65.001     27.552  19.652948     3.5848      8.371   286.7632 9.8665e+00     8.4537      6.250      9.065    10.6767   999.6812 0.0000e+00
      6.373      0.014     7.2070     64.824     27.567  19.653407     3.6387      8.369   286.7752 9.8692e+00     8.5598      6.249      9.063    10.6752   999.6813 0.0000e+00
      6.377      0.017     7.1822     64.579     27.585  19.658451     3.7271      8.369   286.7827 9.8102e+00     8.5951      6.252      9.066    10.6798   999.6808 0.0000e+00
      6.385      0.018     7.1482     64.283     27.569  19.650493     3.7602      8.369   286.7678 9.7650e+00     8.5858      6.261      9.081    10.6780   999.6811 0.0000e+00
      6.395      0.018     7.1125     64.002     27.506  19.620616     3.7620      8.368   286.6816 9.7762e+00     8.5458      6.272      9.098    10.6629   999.6827 0.0000e+00
      6.401      0.016     7.0816     63.761     27.478  19.614334     3.8268      8.366   286.6007 9.8494e+00     8.4715      6.279      9.108    10.6455   999.6844 0.0000e+00
      6.401      0.012     7.0585     63.568     27.503  19.637977     3.9451      8.365   286.5637 9.9812e+00     8.4087      6.277      9.104    10.6208   999.6867 0.0000e+00
      6.401      0.008     7.0468     63.464     27.523  19.652807     4.0046      8.364   286.4925 1.0088e+01     8.3443      6.276      9.102    10.6250   999.6863 0.0000e+00
      6.404      0.006     7.0505     63.491     27.546  19.666795     3.9834      8.364   286.4282 1.0118e+01     8.2824      6.282      9.111    10.6661   999.6822 0.0000e+00
      6.405      0.007     7.0711     63.663     27.573  19.680260     3.8179      8.363   286.4750 1.0157e+01     8.1844      6.283      9.112    10.6949   999.6795 0.0000e+00
      6.404      0.008     7.1028     63.931     27.593  19.688763     3.5295      8.361   286.6279 1.0187e+01     8.0448      6.278      9.105    10.7004   999.6790 0.0000e+00
      6.405      0.009     7.1380     64.238     27.622  19.706176     3.3745      8.360   286.7281 1.0172e+01     7.9700      6.279      9.106    10.7014   999.6789 0.0000e+00
      6.412      0.010     7.1723     64.545     27.615  19.700526     3.3573      8.360   286.6537 1.0153e+01     7.9365      6.288      9.120    10.6976   999.6793 0.0000e+00
      6.417      0.011     7.2005     64.789     27.597  19.683869     3.3479      8.358   286.5036 1.0123e+01     7.9015      6.294      9.129    10.6863   999.6805 0.0000e+00
      6.418      0.014     7.2194     64.928     27.629  19.695048     3.3390      8.358   286.4611 1.0072e+01     7.9068      6.293      9.127    10.6734   999.6817 0.0000e+00
      6.418      0.017     7.2207     64.904     27.667  19.708829     3.3369      8.358   286.3989 1.0009e+01     7.9025      6.292      9.125    10.6640   999.6827 0.0000e+00
      6.421      0.020     7.1950     64.639     27.705  19.723642     3.3394      8.357   286.2679 9.9297e+00     7.8819      6.296      9.131    10.6683   999.6823 0.0000e+00
      6.427      0.023     7.1458     64.168     27.754  19.747297     3.2989      8.356   286.2533 9.7819e+00     7.8873      6.302      9.140    10.6688   999.6822 0.0000e+00
      6.435      0.028     7.0766     63.535     27.751  19.741133     3.2112      8.355   286.3081 9.5974e+00     7.9025      6.309      9.151    10.6387   999.6851 0.0000e+00
      6.445      0.033     6.9880     62.738     27.711  19.712532     3.1551      8.354   286.3280 9.4416e+00     7.9347      6.322      9.168    10.6149   999.6875 0.0000e+00
      6.453      0.038     6.8863     61.816     27.725  19.718587     3.1496      8.353   286.2362 9.2739e+00     7.9494      6.330      9.182    10.5955   999.6894 0.0000e+00
      6.460      0.043     6.7752     60.807     27.777  19.750917     3.1535      8.352   286.1446 9.0454e+00     7.9161      6.334      9.188    10.5660   999.6923 0.0000e+00
      6.469      0.049     6.6568     59.732     27.834  19.786312     3.1683      8.351   286.1667 8.8009e+00     7.8928      6.342      9.199    10.5637   999.6926 0.0000e+00
      6.484      0.055     6.5371     58.637     27.907  19.829440     3.1976      8.349   286.2447 8.5881e+00     7.8958      6.358      9.223    10.5697   999.6920 0.0000e+00
      6.501      0.063     6.4220     57.567     28.017  19.891828     3.2217      8.349   286.3140 8.4211e+00     7.8875      6.376      9.247    10.5576   999.6933 0.0000e+00
      6.517      0.071     6.3124     56.517     28.168  19.969827     3.2342      8.348   286.3155 8.2798e+00     7.8910      6.389      9.267    10.5488   999.6942 0.0000e+00
      6.536      0.076     6.1996     55.413     28.284  20.011414     3.2710      8.346   286.3494 8.0918e+00     8.0695      6.408      9.295    10.5463   999.6946 0.0000e+00
      6.559      0.078     6.0716     54.183     28.342  20.014064     3.3453      8.345   286.4662 7.8592e+00     8.4071      6.432      9.329    10.5277   999.6965 0.0000e+00
      6.581      0.075     5.9197     52.768     28.363  20.001831     3.3958      8.343   286.6953 7.6425e+00     8.5967      6.453      9.360    10.5061   999.6987 0.0000e+00
      6.602      0.068     5.7237     50.983     28.372  19.990333     3.4143      8.342   287.0545 7.4589e+00     8.6256      6.475      9.391    10.4593   999.7032 0.0000e+00
      6.621      0.059     5.4529     48.556     28.398  20.001869     3.5075      8.341   287.3678 7.3239e+00     8.9855      6.495      9.420    10.3674   999.7119 0.0000e+00
      6.635      0.050     5.0911     45.334     28.416  20.014449     3.6727      8.340   287.4718 7.2864e+00     9.7038      6.510      9.442    10.2986   999.7184 0.0000e+00
      6.643      0.043     4.6445     41.360     28.415  20.015593     3.7646      8.339   287.4510 7.3108e+00    10.1338      6.516      9.451    10.2549   999.7225 0.0000e+00
      6.649      0.037     4.1328     36.807     28.412  20.015707     3.7779      8.338   287.4604 7.2938e+00    10.2185      6.519      9.456    10.2183   999.7257 0.0000e+00
      6.657      0.033     3.5961     32.034     28.403  20.015830     3.7724      8.337   287.4999 7.2068e+00    10.3020      6.526      9.466    10.2102   999.7266 0.0000e+00
      6.667      0.031     3.0959     27.592     28.388  20.017088     3.7687      8.335   287.6709 7.0850e+00    10.3899      6.537      9.481    10.2132   999.7264 0.0000e+00
      6.677      0.033     2.6750     23.852     28.392  20.030924     3.7755      8.334   287.9791 6.9876e+00    10.3960      6.548      9.498    10.2185   999.7259 0.0000e+00
      6.685      0.037     2.3556     21.006     28.425  20.056297     3.7859      8.334   288.2145 6.9278e+00    10.4089      6.556      9.509    10.2209   999.7258 0.0000e+00
      6.690      0.041     2.1572     19.229     28.460  20.070176     3.9635      8.334   288.3661 6.8596e+00    10.8077      6.560      9.515    10.2259   999.7253 0.0000e+00
      6.698      0.046     2.0836     18.556     28.493  20.071876     4.3014      8.333   288.5213 6.7217e+00    11.5471      6.566      9.524    10.2542   999.7228 0.0000e+00
      6.712      0.052     2.1191     18.849     28.541  20.076831     4.4819      8.332   288.6282 6.4954e+00    11.9755      6.580      9.543    10.2811   999.7204 0.0000e+00
      6.729      0.059     2.2214     19.732     28.663  20.130055     4.4989      8.330   288.7122 6.2671e+00    12.0226      6.599      9.571    10.2839   999.7202 0.0000e+00
      6.745      0.065     2.3249     20.620     28.920  20.271403     4.5150      8.328   288.8496 6.0821e+00    12.0183      6.615      9.595    10.2664   999.7218 0.0000e+00
      6.761      0.069     2.3734     21.015     29.331  20.517334     4.6164      8.327   288.9126 5.8683e+00    12.1849      6.629      9.615    10.2246   999.7257 0.0000e+00
      6.781      0.069     2.3333     20.631     29.816  20.820269     4.7969      8.326   288.7854 5.6035e+00    12.5627      6.648      9.642    10.1700   999.7309 0.0000e+00
      6.801      0.067     2.1890     19.336     30.134  21.016571     4.8940      8.324   288.6883 5.3485e+00    12.8176      6.672      9.677    10.1170   999.7358 0.0000e+00
      6.820      0.062     1.9425     17.147     30.207  21.051440     4.8975      8.322   288.7707 5.1189e+00    12.8412      6.689      9.703    10.0484   999.7420 0.0000e+00
      6.835      0.055     1.6149     14.249     30.132  20.988147     4.8310      8.322   288.9212 4.8930e+00    12.8804      6.703      9.721     9.9687   999.7492 0.0000e+00
      6.849      0.045     1.2396     10.935     29.994  20.885549     4.6963      8.321   289.1315 4.7011e+00    13.0299      6.718      9.743     9.9070   999.7549 0.0000e+00
      6.860      0.036     0.8486      7.485     29.908  20.825748     4.6126      8.320   289.3349 4.5823e+00    13.1082      6.730      9.760     9.8642   999.7587 0.0000e+00
      6.866      0.030     0.4807      4.241     29.825  20.772504     4.5903      8.319   289.4018 4.5239e+00    13.0738      6.734      9.768     9.8390   999.7609 0.0000e+00
      6.869      0.027     0.1775      1.566     29.690  20.685763     4.5303      8.318   289.4243 4.4799e+00    13.0070      6.736      9.770     9.8228   999.7623 0.0000e+00
      6.873      0.027    -0.0469     -0.414     29.646  20.664930     4.4258      8.316   289.5204 4.4069e+00    12.9243      6.740      9.774     9.8100   999.7634 0.0000e+00
      6.879      0.030    -0.1965     -1.736     29.696  20.710893     4.3672      8.315   289.6170 4.3052e+00    12.8926      6.746      9.784     9.8106   999.7633 0.0000e+00
      6.888      0.035    -0.2767     -2.445     29.898  20.860958     4.3677      8.315   289.6462 4.1949e+00    12.9189      6.754      9.797     9.8213   999.7624 0.0000e+00
      6.899      0.042    -0.2985     -2.637     30.853  21.527986     4.3972      8.313   289.6156 4.0882e+00    13.0450      6.765      9.812     9.8332   999.7613 0.0000e+00
      6.910      0.052    -0.2753     -2.431     32.350  22.559872     4.4462      8.310   289.5047 3.9905e+00    13.2379      6.777      9.830     9.8487   999.7600 0.0000e+00
      6.921      0.059    -0.2217     -1.956     33.385  23.252152     4.4753      8.308   289.4241 3.8854e+00    13.3169      6.787      9.844     9.8711   999.7583 0.0000e+00
      6.936      0.063    -0.1530     -1.349     33.776  23.491742     4.4799      8.305   289.5015 3.7395e+00    13.3122      6.799      9.860     9.8880   999.7568 0.0000e+00
      6.957      0.062    -0.0787     -0.694     33.716  23.426817     4.4153      8.302   289.5798 3.5563e+00    13.2794      6.821      9.892     9.8943   999.7567 0.0000e+00
      6.981      0.057    -0.0044     -0.039     33.538  23.291781     4.2744      8.300   289.3390 3.3961e+00    13.1830      6.849      9.934     9.8779   999.7589 0.0000e+00
      7.000      0.047     0.0638      0.562     33.305  23.127705     4.1894      8.299   288.5690 3.3122e+00    13.0974      6.868      9.962     9.8247   999.7638 0.0000e+00
      7.009      0.033     0.1182      1.042     32.792  22.775070     4.1859      8.296   287.4106 3.3011e+00    13.0963      6.876      9.972     9.7662   999.7691 0.0000e+00
      7.011      0.019     0.1561      1.375     32.220  22.390000     4.1888      8.294   285.5712 3.3113e+00    13.1035      6.877      9.974     9.7318   999.7719 0.0000e+00
      7.010      0.009     0.1796      1.583     31.848  22.150891     4.1285      8.293   282.2472 3.3275e+00    12.8573      6.875      9.972     9.7189   999.7729 0.0000e+00
      7.008      0.009     0.1931      1.703     32.023  22.294399     4.0113      8.290   278.0215 3.3560e+00    12.4128      6.873      9.968     9.7163   999.7731 0.0000e+00
      7.006      0.018     0.2028      1.790     33.904  23.617700     3.9511      8.288   274.4868 3.3670e+00    12.1872      6.870      9.963     9.7195   999.7726 0.0000e+00
      7.007      0.033     0.2118      1.868     37.574  26.161494     3.9735      8.285   271.9459 3.3326e+00    12.1940      6.869      9.962     9.7391   999.7707 0.0000e+00
      7.015      0.048     0.2238      1.972     40.913  28.436788     4.2126      8.280   269.6705 3.2184e+00    12.3633      6.875      9.972     9.7736   999.7677 0.0000e+00
      7.034      0.062     0.2452      2.156     42.623  29.557078     4.6396      8.276   266.8495 3.0356e+00    12.6937      6.894     10.000     9.8096   999.7646 0.0000e+00
      7.060      0.072     0.2747      2.410     43.166  29.872056     4.8712      8.274   262.7890 2.8481e+00    12.8796      6.924     10.041     9.8407   999.7625 0.0000e+00
      7.085      0.077     0.3063      2.684     43.172  29.833882     4.8889      8.271   258.0894 2.6859e+00    12.8415      6.950     10.079     9.8327   999.7650 0.0000e+00
      7.106      0.077     0.3338      2.924     43.241  29.856924     4.8194      8.267   253.9066 2.5584e+00    12.6585      6.970     10.109     9.7620   999.7725 0.0000e+00
      7.121      0.074     0.3503      3.068     43.868  30.277520     4.6891      8.262   250.4163 2.4537e+00    12.3705      6.983     10.128     9.6662   999.7810 0.0000e+00
      7.135      0.070     0.3520      3.082     44.728  30.858122     4.6141      8.257   247.5515 2.3482e+00    12.1780      6.995     10.146     9.5903   999.7875 0.0000e+00
      7.152      0.068     0.3388      2.965     45.300  31.229329     4.5975      8.252   245.1665 2.2362e+00    12.1010      7.014     10.172     9.5430   999.7914 0.0000e+00
      7.171      0.068     0.3155      2.759     45.686  31.465951     4.6007      8.246   243.0035 2.1262e+00    11.9305      7.033     10.201     9.5158   999.7937 0.0000e+00
      7.189      0.072     0.2881      2.518     46.325  31.878757     4.6091      8.240   240.7565 2.0225e+00    11.6572      7.051     10.227     9.5078   999.7948 0.0000e+00
      7.206      0.077     0.2601      2.272     47.411  32.603261     4.6039      8.233   237.7011 1.9066e+00    11.4837      7.066     10.249     9.4999   999.7958 0.0000e+00
      7.223      0.082     0.2352      2.053     48.466  33.308480     4.5902      8.227   233.0778 1.7877e+00    11.3723      7.082     10.272     9.4695   999.7985 0.0000e+00
      7.244      0.085     0.2159      1.883     49.027  33.678358     4.5130      8.222   226.5863 1.6789e+00    10.5072      7.102     10.301     9.4330   999.8016 0.0000e+00
      7.270      0.086     0.2022      1.763     49.280  33.838694     4.3810      8.219   219.2680 1.5630e+00     8.8898      7.129     10.340     9.4041   999.8042 0.0000e+00
      7.298      0.083     0.1940      1.691     49.407  33.914281     4.3208      8.214   212.6491 1.4508e+00     7.9742      7.158     10.383     9.3800   999.8068 0.0000e+00
      7.321      0.076     0.1891      1.649     49.299  33.830666     4.3312      8.210   206.7864 1.3476e+00     7.8915      7.181     10.415     9.3598   999.8089 0.0000e+00
      7.340      0.067     0.1841      1.604     49.047  33.652770     4.3329      8.207   201.3822 1.2567e+00     7.8905      7.199     10.442     9.3430   999.8105 0.0000e+00
      7.354      0.059     0.1794      1.563     49.059  33.667336     4.3332      8.203   196.8658 1.2047e+00     7.9943      7.214     10.464     9.3307   999.8116 0.0000e+00
      7.363      0.054     0.1782      1.553     49.348  33.879846     4.3611      8.199   193.3064 1.1743e+00     8.2283      7.220     10.472     9.3193   999.8126 0.0000e+00
      7.371      0.054     0.1798      1.568     49.601  34.064368     4.3836      8.195   190.1797 1.1211e+00     8.3605      7.225     10.481     9.3080   999.8135 0.0000e+00
      7.384      0.058     0.1811      1.580     50.054  34.375184     4.3630      8.190   187.2819 1.0532e+00     8.3469      7.240     10.501     9.2999   999.8141 0.0000e+00
      7.401      0.065     0.1816      1.584     50.844  34.908752     4.2165      8.184   184.6836 9.9797e-01     8.1298      7.258     10.527     9.3053   999.8137 0.0000e+00
      7.419      0.073     0.1816      1.583     51.457  35.311190     3.9733      8.178   181.9949 9.3268e-01     7.7681      7.275     10.551     9.3277   999.8122 0.0000e+00
      7.439      0.077     0.1816      1.582     51.578  35.369334     3.8413      8.173   179.0362 8.5838e-01     7.6104      7.294     10.578     9.3414   999.8112 0.0000e+00
      7.462      0.076     0.1821      1.586     51.495  35.294384     3.8170      8.168   176.0981 8.0346e-01     7.5670      7.318     10.614     9.3377   999.8117 0.0000e+00
      7.486      0.071     0.1825      1.589     51.502  35.293567     3.6446      8.162   173.4008 7.6166e-01     6.8828      7.344     10.651     9.3306   999.8128 0.0000e+00
      7.506      0.065     0.1819      1.584     51.599  35.359452     3.3083      8.157   170.7723 7.2980e-01     5.6308      7.363     10.679     9.3129   999.8145 0.0000e+00
      7.519      0.057     0.1789      1.559     51.925  35.583217     3.1145      8.153   167.8070 7.0695e-01     4.9806      7.375     10.697     9.2815   999.8171 0.0000e+00
      7.528      0.051     0.1769      1.541     52.576  36.031443     3.0960      8.149   164.8214 6.8586e-01     4.9525      7.383     10.708     9.2616   999.8185 0.0000e+00
      7.538      0.047     0.1777      1.547     53.212  36.462753     3.0945      8.144   162.3779 6.6534e-01     4.8646      7.392     10.721     9.2619   999.8186 0.0000e+00
      7.549      0.047     0.1781      1.550     53.547  36.672339     3.0873      8.139   160.4612 6.4180e-01     4.7054      7.403     10.737     9.2622   999.8186 0.0000e+00
      7.561      0.048     0.1770      1.539     53.568  36.661258     3.0863      8.133   158.6830 6.2151e-01     4.6335      7.415     10.753     9.2595   999.8189 0.0000e+00
      7.575      0.050     0.1760      1.530     53.476  36.582642     3.0914      8.128   156.7092 6.0266e-01     4.6508      7.429     10.775     9.2662   999.8188 0.0000e+00
      7.589      0.050     0.1754      1.525     53.520  36.610451     3.0364      8.123   154.5781 5.7572e-01     4.7505      7.444     10.796     9.2657   999.8192 0.0000e+00
      7.602      0.050     0.1749      1.521     53.711  36.743586     2.9151      8.118   152.3600 5.5072e-01     4.8886      7.455     10.813     9.2430   999.8211 0.0000e+00
      7.615      0.051     0.1761      1.531     53.974  36.922848     2.8478      8.113   150.0237 5.3344e-01     4.9435      7.467     10.831     9.2128   999.8234 0.0000e+00
      7.627      0.052     0.1778      1.546     54.373  37.190996     2.8466      8.107   147.8403 5.2313e-01     4.9556      7.479     10.847     9.1970   999.8247 0.0000e+00
      7.638      0.054     0.1767      1.536     55.221  37.764044     2.8481      8.101   146.0945 5.1802e-01     4.9695      7.489     10.863     9.1993   999.8246 0.0000e+00
      7.651      0.057     0.1737      1.510     56.802  38.836686     2.8489      8.095   144.6600 4.9986e-01     4.9475      7.502     10.881     9.2040   999.8244 0.0000e+00
      7.668      0.062     0.1715      1.490     58.344  39.876170     2.8477      8.087   143.4013 4.6678e-01     4.9186      7.520     10.907     9.2030   999.8246 0.0000e+00
      7.685      0.068     0.1699      1.475     58.538  39.984525     2.8506      8.080   142.2331 4.4046e-01     4.9159      7.538     10.933     9.1982   999.8252 0.0000e+00
      7.700      0.075     0.1691      1.468     57.516  39.258038     2.8581      8.072   140.9463 4.1924e-01     4.9139      7.551     10.951     9.1914   999.8260 0.0000e+00
      7.719      0.081     0.1683      1.460     56.480  38.519936     2.8608      8.063   139.6298 3.9463e-01     4.8954      7.568     10.975     9.1860   999.8271 0.0000e+00
      7.743      0.084     0.1668      1.445     56.109  38.233771     2.8576      8.057   138.3611 3.7400e-01     4.8886      7.592     11.012     9.1746   999.8290 0.0000e+00
      7.768      0.085     0.1640      1.420     56.308  38.337276     2.8537      8.052   136.9645 3.5441e-01     4.8974      7.618     11.050     9.1512   999.8309 0.0000e+00
      7.792      0.084     0.1618      1.401     56.868  38.692198     2.8491      8.047   135.3913 3.2847e-01     4.8705      7.642     11.084     9.1257   999.8324 0.0000e+00
      7.815      0.082     0.1614      1.396     57.771  39.287498     2.8184      8.042   133.7942 3.0034e-01     4.7926      7.666     11.118     9.0991   999.8340 0.0000e+00
      7.834      0.078     0.1601      1.385     58.668  39.884964     2.7689      8.036   132.3670 2.8699e-01     4.7097      7.685     11.146     9.0689   999.8363 0.0000e+00
      7.850      0.072     0.1583      1.370     58.961  40.075520     2.7444      8.031   131.0403 2.8089e-01     4.6867      7.698     11.164     9.0387   999.8388 0.0000e+00
      7.868      0.067     0.1573      1.360     58.580  39.813905     2.7306      8.026   129.6271 2.5611e-01     4.6790      7.715     11.188     9.0145   999.8408 0.0000e+00
      7.888      0.062     0.1549      1.340     58.041  39.451671     2.6619      8.021   128.0993 2.3286e-01     4.4523      7.737     11.222     8.9988   999.8425 0.0000e+00
      7.906      0.059     0.1520      1.316     57.825  39.314439     2.5555      8.016   126.5920 2.3031e-01     4.0762      7.755     11.248     8.9887   999.8438 0.0000e+00
      7.917      0.057     0.1510      1.307     57.876  39.360859     2.4937      8.010   125.2546 2.3187e-01     3.8674      7.764     11.261     8.9814   999.8444 0.0000e+00
      7.926      0.054     0.1502      1.301     57.980  39.441595     2.4787      8.003   124.0610 2.2750e-01     3.7954      7.771     11.271     8.9779   999.8445 0.0000e+00
      7.940      0.052     0.1498      1.297     58.197  39.592292     2.5383      7.998   122.8296 2.1134e-01     3.7630      7.785     11.291     8.9823   999.8440 0.0000e+00
      7.956      0.050     0.1498      1.297     58.491  39.786264     2.6688      7.993   121.4645 1.9502e-01     3.7707      7.803     11.318     8.9910   999.8434 0.0000e+00
      7.971      0.050     0.1496      1.294     58.737  39.945817     2.7471      7.989   119.9451 1.9615e-01     3.7903      7.817     11.339     9.0024   999.8427 0.0000e+00
      7.983      0.050     0.1494      1.292     59.008  40.124737     2.7564      7.984   118.3971 2.0383e-01     3.8028      7.829     11.355     9.0136   999.8418 0.0000e+00
      7.994      0.049     0.1492      1.291     59.273  40.298925     2.7378      7.979   117.1171 2.0961e-01     3.7914      7.840     11.370     9.0166   999.8417 0.0000e+00
      8.004      0.048     0.1479      1.279     59.250  40.274275     2.6611      7.974   115.9966 2.0195e-01     3.8156      7.849     11.384     9.0093   999.8426 0.0000e+00
      8.016      0.045     0.1454      1.258     58.975  40.080627     2.5482      7.970   114.7449 1.8046e-01     3.8990      7.859     11.399     9.0002   999.8433 0.0000e+00
      8.031      0.041     0.1439      1.244     58.836  39.989107     2.4919      7.965   113.3402 1.6832e-01     3.9806      7.875     11.422     8.9980   999.8436 0.0000e+00
      8.045      0.038     0.1416      1.224     59.013  40.120026     2.4916      7.960   111.7457 1.6079e-01     4.0166      7.892     11.446     8.9941   999.8442 0.0000e+00
      8.054      0.038     0.1382      1.196     59.309  40.330343     2.5351      7.954   109.9209 1.6137e-01     3.9400      7.901     11.459     8.9838   999.8449 0.0000e+00
      8.056      0.042     0.1372      1.188     59.557  40.500471     2.6195      7.948   108.2267 1.7064e-01     3.8080      7.900     11.458     8.9752   999.8453 0.0000e+00
      8.060      0.050     0.1392      1.204     59.886  40.716819     2.6705      7.943   107.1785 1.6656e-01     3.7645      7.899     11.457     8.9781   999.8451 0.0000e+00
      8.072      0.061     0.1424      1.232     60.301  40.978049     2.6757      7.937   106.5397 1.5514e-01     3.8076      7.913     11.476     8.9920   999.8443 0.0000e+00
      8.092      0.075     0.1458      1.260     60.655  41.182897     2.6392      7.932   105.6651 1.4131e-01     3.9353      7.935     11.509     9.0007   999.8438 0.0000e+00
      8.116      0.089     0.1493      1.289     60.972  41.352382     2.5750      7.927   104.4331 1.3086e-01     4.1288      7.958     11.542     9.0010   999.8439 0.0000e+00
      8.143      0.098     0.1520      1.312     61.358  41.566953     2.5413      7.922   103.0869 1.2915e-01     4.2471      7.984     11.579     8.9971   999.8445 0.0000e+00
      8.172      0.101     0.1527      1.317     61.774  41.808987     2.5444      7.916   101.7784 1.2661e-01     4.2516      8.015     11.624     8.9802   999.8461 0.0000e+00
      8.202      0.099     0.1506      1.298     62.088  41.993067     2.5516      7.911   100.4850 1.2550e-01     4.1833      8.045     11.669     8.9499   999.8486 0.0000e+00
      8.227      0.094     0.1459      1.257     62.336  42.141822     2.5423      7.906    99.1500 1.2652e-01     4.0772      8.069     11.702     8.9098   999.8518 0.0000e+00
      8.249      0.090     0.1434      1.234     62.643  42.337706     2.5354      7.901    97.9406 1.2524e-01     4.0172      8.089     11.731     8.8675   999.8551 0.0000e+00
      8.269      0.088     0.1421      1.223     63.020  42.583661     2.5461      7.895    96.9611 1.2392e-01     4.0138      8.111     11.764     8.8352   999.8577 0.0000e+00
      8.287      0.087     0.1381      1.188     63.309  42.766350     2.6019      7.890    95.9974 1.2382e-01     3.9715      8.127     11.787     8.8133   999.8595 0.0000e+00
      8.307      0.084     0.1352      1.163     63.335  42.768726     2.6986      7.886    94.8914 1.2374e-01     3.8659      8.144     11.811     8.7979   999.8607 0.0000e+00
      8.334      0.076     0.1345      1.157     63.216  42.675867     2.7454      7.881    93.7422 1.2374e-01     3.7859      8.172     11.853     8.7898   999.8615 0.0000e+00
      8.362      0.066     0.1340      1.153     63.105  42.596009     2.7425      7.876    92.6850 1.2382e-01     3.7256      8.205     11.900     8.7856   999.8621 0.0000e+00
      8.382      0.052     0.1335      1.149     62.959  42.501603     2.7325      7.872    91.7450 1.2382e-01     3.5630      8.225     11.929     8.7751   999.8631 0.0000e+00
      8.390      0.037     0.1325      1.140     62.825  42.423337     2.6501      7.867    90.8954 1.2375e-01     3.2938      8.230     11.937     8.7602   999.8642 0.0000e+00
      8.390      0.025     0.1321      1.137     62.883  42.475133     2.5180      7.864    89.9832 1.2370e-01     3.0923      8.228     11.934     8.7491   999.8649 0.0000e+00
      8.390      0.019     0.1317      1.133     63.182  42.683418     2.4538      7.861    89.1474 1.2367e-01     3.0282      8.227     11.932     8.7449   999.8652 0.0000e+00
      8.391      0.019     0.1324      1.139     63.526  42.909872     2.4373      7.857    88.6204 1.2366e-01     3.0429      8.228     11.933     8.7490   999.8648 0.0000e+00
      8.394      0.024     0.1339      1.152     63.761  43.054347     2.4233      7.853    88.2573 1.2371e-01     3.2370      8.229     11.936     8.7599   999.8640 0.0000e+00
      8.403      0.031     0.1328      1.142     64.031  43.223825     2.4226      7.849    87.7682 1.2373e-01     3.5722      8.238     11.950     8.7730   999.8631 0.0000e+00
      8.416      0.040     0.1299      1.118     64.454  43.498582     2.4294      7.846    87.0091 1.2373e-01     3.7535      8.255     11.973     8.7800   999.8628 0.0000e+00
      8.428      0.048     0.1313      1.129     64.876  43.773033     2.4356      7.842    86.3060 1.2368e-01     3.7900      8.266     11.989     8.7737   999.8636 0.0000e+00
      8.438      0.054     0.1348      1.159     65.136  43.938783     2.4629      7.837    85.8053 1.2364e-01     3.8828      8.272     11.999     8.7598   999.8646 0.0000e+00
      8.451      0.056     0.1349      1.159     65.209  43.978676     2.5166      7.832    85.3443 1.2369e-01     3.9908      8.284     12.016     8.7496   999.8654 0.0000e+00
      8.469      0.056     0.1335      1.147     65.159  43.937877     2.5472      7.828    84.9479 1.2376e-01     4.0139      8.306     12.046     8.7426   999.8662 0.0000e+00
      8.489      0.053     0.1316      1.131     65.095  43.889962     2.5472      7.825    84.6259 1.2369e-01     3.9982      8.325     12.075     8.7336   999.8671 0.0000e+00
      8.505      0.048     0.1288      1.106     65.126  43.907337     2.5336      7.821    84.2895 1.2360e-01     3.8672      8.341     12.098     8.7263   999.8677 0.0000e+00
      8.516      0.044     0.1279      1.098     65.297  44.020950     2.5042      7.817    83.8919 1.2363e-01     3.6421      8.353     12.115     8.7190   999.8683 0.0000e+00
      8.521      0.043     0.1273      1.093     65.636  44.247663     2.4780      7.813    83.5184 1.2370e-01     3.5710      8.357     12.121     8.7126   999.8687 0.0000e+00
      8.525      0.046     0.1242      1.066     66.092  44.553018     2.4769      7.810    83.0436 1.2373e-01     3.6301      8.359     12.123     8.7103   999.8689 0.0000e+00
      8.535      0.053     0.1230      1.056     66.547  44.855466     2.5163      7.805    82.1955 1.2370e-01     3.8656      8.366     12.134     8.7074   999.8691 0.0000e+00
      8.550      0.063     0.1256      1.079     67.401  45.427996     2.5736      7.800    81.2654 1.2365e-01     4.2542      8.384     12.159     8.7057   999.8694 0.0000e+00
      8.570      0.075     0.1274      1.094     68.651  46.268124     2.5977      7.795    80.5744 1.2364e-01     4.4617      8.405     12.190     8.7056   999.8696 0.0000e+00
      8.591      0.086     0.1277      1.097     69.386  46.757778     2.5990      7.790    79.9485 1.2369e-01     4.4738      8.424     12.218     8.7037   999.8701 0.0000e+00
      8.615      0.095     0.1282      1.101     69.616  46.902993     2.5803      7.784    79.3761 1.2372e-01     4.3348      8.447     12.252     8.6996   999.8705 0.0000e+00
      8.641      0.102     0.1281      1.099     69.982  47.134792     2.5283      7.778    78.9023 1.2369e-01     4.0929      8.474     12.292     8.6973   999.8711 0.0000e+00
      8.668      0.107     0.1273      1.093     70.402  47.401126     2.4911      7.772    78.4356 1.2369e-01     3.9735      8.501     12.329     8.6969   999.8719 0.0000e+00
      8.696      0.110     0.1271      1.090     70.598  47.519329     2.4942      7.767    77.9500 1.2373e-01     3.9729      8.526     12.366     8.6930   999.8725 0.0000e+00
      8.726      0.110     0.1251      1.073     70.749  47.611322     2.5048      7.763    77.4180 1.2372e-01     3.9871      8.556     12.410     8.6865   999.8731 0.0000e+00
      8.757      0.105     0.1221      1.047     70.874  47.687756     2.4890      7.758    76.9082 1.2367e-01     4.0144      8.589     12.457     8.6749   999.8743 0.0000e+00
      8.787      0.095     0.1234      1.057     70.779  47.617845     2.4501      7.754    76.4314 1.2364e-01     4.0405      8.618     12.500     8.6616   999.8755 0.0000e+00
      8.813      0.082     0.1279      1.096     70.744  47.591660     2.4260      7.751    75.8699 1.2369e-01     4.0400      8.645     12.538     8.6522   999.8763 0.0000e+00
      8.833      0.068     0.1305      1.119     70.980  47.752219     2.4221      7.747    75.3668 1.2374e-01     4.0087      8.666     12.569     8.6458   999.8769 0.0000e+00
      8.845      0.056     0.1285      1.102     71.211  47.907882     2.3944      7.742    74.9949 1.2375e-01     3.8260      8.676     12.584     8.6411   999.8774 0.0000e+00
      8.851      0.048     0.1247      1.070     71.186  47.886000     2.3424      7.737    74.6430 1.2380e-01     3.5360      8.679     12.587     8.6352   999.8777 0.0000e+00
      8.859      0.042     0.1220      1.046     70.981  47.741675     2.3137      7.733    74.3814 1.2380e-01     3.3858      8.685     12.597     8.6333   999.8778 0.0000e+00
      8.870      0.040     0.1207      1.035     70.803  47.623600     2.3077      7.730    74.0685 1.2375e-01     3.3208      8.697     12.615     8.6365   999.8778 0.0000e+00
      8.884      0.042     0.1206      1.034     70.947  47.728579     2.3298      7.726    73.5273 1.2376e-01     3.2086      8.713     12.637     8.6383   999.8779 0.0000e+00
      8.894      0.047     0.1183      1.015     71.429  48.058307     2.3901      7.722    72.9999 1.2379e-01     3.1115      8.724     12.653     8.6325   999.8783 0.0000e+00
      8.903      0.052     0.1155      0.991     71.807  48.307739     2.4306      7.719    72.5964 1.2372e-01     3.0965      8.730     12.662     8.6251   999.8787 0.0000e+00
      8.914      0.055     0.1159      0.994     71.857  48.330994     2.4286      7.716    72.1756 1.2362e-01     3.1259      8.738     12.674     8.6271   999.8786 0.0000e+00
      8.931      0.056     0.1168      1.001     71.689  48.212459     2.3752      7.712    71.7842 1.2368e-01     3.2376      8.756     12.700     8.6355   999.8782 0.0000e+00
      8.951      0.055     0.1168      1.001     71.487  48.081264     2.2874      7.708    71.4772 1.2378e-01     3.4313      8.780     12.734     8.6421   999.8780 0.0000e+00
      8.969      0.051     0.1184      1.016     71.372  48.014971     2.2434      7.704    71.1312 1.2373e-01     3.5348      8.798     12.760     8.6370   999.8786 0.0000e+00
      8.981      0.043     0.1191      1.022     71.307  47.982522     2.2424      7.701    70.8702 1.2365e-01     3.5373      8.808     12.776     8.6256   999.8795 0.0000e+00
      8.990      0.032     0.1176      1.009     71.239  47.942989     2.2309      7.700    70.7304 1.2366e-01     3.4283      8.817     12.787     8.6217   999.8797 0.0000e+00
      8.996      0.022     0.1177      1.010     71.195  47.918057     2.2004      7.697    70.3019 1.2371e-01     3.2332      8.823     12.796     8.6253   999.8793 0.0000e+00
      8.999      0.016     0.1197      1.028     71.214  47.935117     2.1860      7.693    69.4752 1.2372e-01     3.1451      8.825     12.800     8.6355   999.8786 0.0000e+00
      8.999      0.014     0.1211      1.039     71.337  48.022240     2.1870      7.689    68.5638 1.2372e-01     3.1494      8.825     12.799     8.6446   999.8780 0.0000e+00
      8.999      0.017     0.1187      1.019     71.708  48.272828     2.1771      7.686    67.8861 1.2374e-01     3.1549      8.824     12.799     8.6480   999.8777 0.0000e+00
      9.002      0.023     0.1166      1.000     72.229  48.615003     2.1709      7.683    67.4760 1.2376e-01     3.1456      8.827     12.803     8.6502   999.8775 0.0000e+00
      9.008      0.031     0.1173      1.007     72.714  48.920303     2.1804      7.680    67.1333 1.2377e-01     3.1025      8.832     12.810     8.6535   999.8774 0.0000e+00
      9.019      0.041     0.1183      1.015     73.219  49.233062     2.1880      7.676    66.8397 1.2378e-01     3.0595      8.843     12.827     8.6571   999.8772 0.0000e+00
      9.032      0.051     0.1191      1.021     73.616  49.474836     2.1847      7.673    66.5934 1.2374e-01     3.0847      8.859     12.849     8.6600   999.8771 0.0000e+00
      9.047      0.060     0.1189      1.019     73.771  49.556986     2.2019      7.671    66.2201 1.2370e-01     3.3090      8.871     12.867     8.6551   999.8778 0.0000e+00
      9.062      0.068     0.1189      1.019     73.848  49.591146     2.2394      7.667    65.8546 1.2371e-01     3.6410      8.885     12.887     8.6375   999.8792 0.0000e+00
      9.080      0.074     0.1203      1.030     73.935  49.633791     2.2488      7.662    65.6148 1.2374e-01     3.7894      8.904     12.914     8.6182   999.8809 0.0000e+00
      9.102      0.079     0.1209      1.035     74.041  49.691476     2.2364      7.658    65.2138 1.2379e-01     3.7923      8.926     12.945     8.6007   999.8824 0.0000e+00
      9.124      0.081     0.1198      1.026     74.190  49.780469     2.2371      7.655    64.5340 1.2375e-01     3.7408      8.949     12.979     8.5848   999.8836 0.0000e+00
      9.145      0.079     0.1189      1.017     74.266  49.820547     2.2491      7.653    63.8483 1.2369e-01     3.6253      8.969     13.008     8.5739   999.8844 0.0000e+00
      9.166      0.072     0.1174      1.005     74.244  49.794952     2.2593      7.650    63.2901 1.2371e-01     3.5433      8.988     13.036     8.5637   999.8853 0.0000e+00
      9.188      0.062     0.1134      0.971     74.241  49.788572     2.2567      7.647    62.7754 1.2369e-01     3.5037      9.012     13.071     8.5534   999.8861 0.0000e+00
      9.206      0.052     0.1102      0.944     74.266  49.806911     2.2181      7.643    62.3571 1.2365e-01     3.5070      9.033     13.100     8.5474   999.8866 0.0000e+00
      9.216      0.042     0.1098      0.940     74.291  49.826139     2.1565      7.641    62.0174 1.2368e-01     3.5496      9.040     13.111     8.5406   999.8872 0.0000e+00
      9.219      0.033     0.1098      0.940     74.296  49.830509     2.1270      7.639    61.6794 1.2375e-01     3.5607      9.040     13.111     8.5307   999.8879 0.0000e+00
      9.224      0.026     0.1108      0.949     74.339  49.859749     2.1303      7.637    61.3685 1.2381e-01     3.5429      9.043     13.117     8.5276   999.8881 0.0000e+00
      9.231      0.024     0.1138      0.974     74.531  49.989120     2.1617      7.634    61.0123 1.2377e-01     3.4647      9.052     13.130     8.5304   999.8880 0.0000e+00
      9.237      0.025     0.1161      0.994     74.738  50.124374     2.2120      7.631    60.4698 1.2365e-01     3.3362      9.061     13.140     8.5335   999.8878 0.0000e+00
      9.242      0.027     0.1170      1.001     74.812  50.161218     2.2363      7.628    59.8850 1.2359e-01     3.2673      9.063     13.144     8.5336   999.8878 0.0000e+00
      9.247      0.028     0.1165      0.996     74.864  50.180508     2.2468      7.626    59.3620 1.2360e-01     3.2874      9.067     13.150     8.5321   999.8879 0.0000e+00
      9.256      0.028     0.1141      0.976     74.955  50.230557     2.2434      7.624    58.7916 1.2361e-01     3.4482      9.078     13.165     8.5354   999.8878 0.0000e+00
      9.266      0.028     0.1125      0.962     75.008  50.258203     2.2041      7.620    58.3235 1.2363e-01     3.6715      9.089     13.181     8.5343   999.8881 0.0000e+00
      9.274      0.027     0.1120      0.957     75.020  50.260698     2.1703      7.618    58.0901 1.2364e-01     3.7591      9.095     13.191     8.5230   999.8889 0.0000e+00
      9.280      0.025     0.1105      0.945     75.024  50.260708     2.1642      7.615    58.0342 1.2362e-01     3.7527      9.100     13.198     8.5112   999.8897 0.0000e+00
      9.286      0.021     0.1102      0.943     75.015  50.258326     2.1647      7.613    58.0787 1.2358e-01     3.7253      9.107     13.208     8.5042   999.8903 0.0000e+00
      9.291      0.019     0.1127      0.964     74.961  50.231904     2.1680      7.612    58.0259 1.2355e-01     3.6576      9.112     13.216     8.4998   999.8906 0.0000e+00
      9.294      0.019     0.1143      0.977     74.887  50.195318     2.1783      7.609    57.9113 1.2361e-01     3.5896      9.115     13.219     8.4959   999.8909 0.0000e+00
      9.298      0.019     0.1139      0.974     74.869  50.197091     2.1843      7.607    57.8114 1.2372e-01     3.5591      9.117     13.223     8.4932   999.8911 0.0000e+00
      9.303      0.021     0.1136      0.972     74.937  50.253366     2.1810      7.605    57.6793 1.2379e-01     3.5172      9.122     13.232     8.4956   999.8910 0.0000e+00
      9.309      0.025     0.1147      0.982     75.104  50.367594     2.1550      7.602    57.6893 1.2374e-01     3.3789      9.130     13.242     8.5031   999.8904 0.0000e+00
      9.315      0.030     0.1153      0.987     75.308  50.498384     2.1045      7.600    57.6752 1.2362e-01     3.1977      9.136     13.249     8.5117   999.8899 0.0000e+00
      9.321      0.034     0.1122      0.960     75.423  50.564359     2.0645      7.598    57.4229 1.2360e-01     3.0957      9.141     13.258     8.5222   999.8892 0.0000e+00
      9.330      0.037     0.1076      0.921     75.483  50.593607     2.0441      7.596    57.2200 1.2370e-01     3.0638      9.148     13.269     8.5307   999.8886 0.0000e+00
      9.343      0.039     0.1061      0.907     75.693  50.724966     2.0406      7.594    57.1153 1.2377e-01     3.1060      9.162     13.288     8.5315   999.8887 0.0000e+00
      9.357      0.041     0.1072      0.917     76.031  50.945715     2.0481      7.592    56.8445 1.2373e-01     3.2456      9.176     13.310     8.5266   999.8892 0.0000e+00
      9.367      0.043     0.1096      0.937     76.276  51.102965     2.0565      7.590    56.4411 1.2373e-01     3.3426      9.187     13.324     8.5192   999.8898 0.0000e+00
      9.374      0.044     0.1119      0.956     76.382  51.165283     2.0636      7.587    56.0228 1.2384e-01     3.3289      9.192     13.332     8.5100   999.8904 0.0000e+00
      9.384      0.045     0.1126      0.962     76.432  51.191016     2.0654      7.585    55.5732 1.2389e-01     3.3085      9.201     13.345     8.5035   999.8910 0.0000e+00
      9.397      0.046     0.1131      0.966     76.487  51.223525     2.0694      7.583    55.2211 1.2380e-01     3.3250      9.216     13.365     8.5019   999.8913 0.0000e+00
      9.409      0.046     0.1137      0.971     76.517  51.240733     2.0675      7.580    54.9488 1.2374e-01     3.3650      9.227     13.383     8.4976   999.8917 0.0000e+00
      9.423      0.044     0.1123      0.959     76.472  51.208508     2.0609      7.577    54.6039 1.2371e-01     3.4000      9.240     13.402     8.4902   999.8924 0.0000e+00
      9.437      0.040     0.1105      0.944     76.389  51.151507     2.0592      7.575    54.2346 1.2374e-01     3.3875      9.256     13.425     8.4852   999.8928 0.0000e+00
      9.448      0.036     0.1097      0.938     76.345  51.123231     2.0547      7.573    53.8382 1.2379e-01     3.3449      9.266     13.440     8.4821   999.8931 0.0000e+00
      9.454      0.034     0.1090      0.932     76.426  51.184231     2.0507      7.572    53.4257 1.2375e-01     3.3108      9.272     13.447     8.4810   999.8932 0.0000e+00
      9.459      0.035     0.1074      0.918     76.614  51.317365     2.0452      7.570    53.0324 1.2370e-01     3.3025      9.277     13.455     8.4800   999.8932 0.0000e+00
      9.463      0.038     0.1066      0.911     76.832  51.462513     2.0406      7.567    52.6967 1.2371e-01     3.3095      9.279     13.458     8.4781   999.8934 0.0000e+00
      9.471      0.042     0.1079      0.922     76.965  51.541712     2.0645      7.565    52.4641 1.2367e-01     3.3969      9.284     13.466     8.4780   999.8933 0.0000e+00
      9.487      0.046     0.1093      0.933     77.037  51.576202     2.1080      7.563    52.1989 1.2359e-01     3.6044      9.301     13.490     8.4835   999.8931 0.0000e+00
      9.506      0.050     0.1098      0.937     77.127  51.625417     2.1158      7.561    51.7279 1.2364e-01     3.7534      9.324     13.523     8.4905   999.8928 0.0000e+00
      9.521      0.053     0.1101      0.940     77.142  51.628580     2.0988      7.559    51.0708 1.2372e-01     3.7895      9.340     13.547     8.4912   999.8930 0.0000e+00
      9.530      0.053     0.1123      0.959     77.124  51.614433     2.0833      7.558    50.5348 1.2373e-01     3.7793      9.346     13.555     8.4828   999.8936 0.0000e+00
      9.540      0.050     0.1152      0.983     77.167  51.644928     2.0595      7.556    50.2369 1.2372e-01     3.6961      9.353     13.564     8.4715   999.8944 0.0000e+00
      9.554      0.046     0.1144      0.977     77.217  51.679687     2.0450      7.553    49.9652 1.2369e-01     3.6023      9.370     13.590     8.4655   999.8949 0.0000e+00
      9.570      0.044     0.1107      0.945     77.275  51.717080     2.0462      7.551    49.6578 1.2371e-01     3.5633      9.386     13.615     8.4605   999.8953 0.0000e+00
      9.581      0.044     0.1067      0.911     77.468  51.842952     2.1173      7.550    49.3602 1.2373e-01     3.5836      9.396     13.628     8.4583   999.8955 0.0000e+00
      9.590      0.045     0.1043      0.891     77.800  52.058167     2.2635      7.549    49.0332 1.2370e-01     3.6847      9.404     13.640     8.4615   999.8953 0.0000e+00
      9.598      0.047     0.1038      0.886     78.163  52.286462     2.3575      7.547    48.6298 1.2371e-01     3.7699      9.412     13.651     8.4633   999.8953 0.0000e+00
      9.607      0.050     0.1052      0.897     78.425  52.443397     2.3695      7.545    48.2684 1.2371e-01     3.7623      9.419     13.661     8.4610   999.8955 0.0000e+00
      9.621      0.055     0.1062      0.906     78.529  52.494552     2.3125      7.542    48.0189 1.2371e-01     3.7887      9.433     13.681     8.4598   999.8957 0.0000e+00
      9.639      0.057     0.1058      0.902     78.594  52.523806     2.2140      7.538    47.7645 1.2374e-01     3.8920      9.453     13.711     8.4566   999.8961 0.0000e+00
      9.658      0.057     0.1059      0.903     78.636  52.542985     2.1678      7.536    47.6016 1.2370e-01     3.9621      9.473     13.739     8.4460   999.8970 0.0000e+00
      9.675      0.055     0.1064      0.908     78.729  52.599381     2.1694      7.535    47.5124 1.2364e-01     4.0145      9.488     13.761     8.4329   999.8981 0.0000e+00
      9.688      0.051     0.1053      0.899     78.978  52.760994     2.1125      7.533    47.2020 1.2362e-01     4.0012      9.502     13.781     8.4205   999.8990 0.0000e+00
      9.698      0.046     0.1043      0.889     79.110  52.845351     1.9924      7.530    46.7737 1.2365e-01     3.8668      9.512     13.796     8.4117   999.8997 0.0000e+00
      9.708      0.040     0.1035      0.882     78.940  52.729965     1.9299      7.528    46.4636 1.2370e-01     3.7662      9.518     13.805     8.4064   999.9001 0.0000e+00
      9.718      0.035     0.1020      0.870     78.795  52.636392     1.9379      7.526    46.2055 1.2372e-01     3.7678      9.529     13.822     8.4028   999.9004 0.0000e+00
      9.729      0.031     0.1042      0.889     78.927  52.730388     1.9767      7.524    45.9761 1.2372e-01     3.7556      9.542     13.841     8.4008   999.9007 0.0000e+00
      9.737      0.028     0.1096      0.935     79.103  52.850052     2.0343      7.522    45.7552 1.2378e-01     3.6508      9.550     13.853     8.3973   999.9011 0.0000e+00
      9.740      0.026     0.1117      0.954     79.238  52.939766     2.0625      7.521    45.4282 1.2380e-01     3.5491      9.551     13.854     8.3945   999.9012 0.0000e+00
      9.743      0.025     0.1102      0.940     79.409  53.052786     2.0571      7.520    45.1188 1.2373e-01     3.5096      9.553     13.856     8.3984   999.9009 0.0000e+00
      9.749      0.024     0.1081      0.921     79.447  53.073075     2.0476      7.518    44.9401 1.2368e-01     3.5010      9.560     13.867     8.4040   999.9006 0.0000e+00
      9.757      0.024     0.1061      0.905     79.430  53.058023     2.0082      7.516    44.8171 1.2372e-01     3.5106      9.568     13.878     8.4042   999.9006 0.0000e+00
      9.766      0.025     0.1035      0.882     79.528  53.124898     1.9360      7.514    44.7495 1.2375e-01     3.5271      9.578     13.891     8.4034   999.9008 0.0000e+00
      9.773      0.025     0.1011      0.862     79.609  53.182854     1.8942      7.512    44.6387 1.2366e-01     3.5368      9.585     13.902     8.4042   999.9009 0.0000e+00
      9.778      0.024     0.0993      0.847     79.516  53.123499     1.8849      7.510    44.4238 1.2360e-01     3.5288      9.590     13.907     8.3993   999.9011 0.0000e+00
      9.783      0.023     0.0990      0.844     79.200  52.915456     1.9358      7.508    44.2169 1.2366e-01     3.5948      9.593     13.913     8.3950   999.9014 0.0000e+00
      9.789      0.022     0.1011      0.862     79.055  52.827339     2.0499      7.506    43.9432 1.2373e-01     3.7450      9.599     13.922     8.3981   999.9014 0.0000e+00
      9.795      0.024     0.1027      0.876     79.503  53.138050     2.1202      7.505    43.5233 1.2370e-01     3.8378      9.607     13.933     8.4011   999.9012 0.0000e+00
      9.801      0.029     0.1032      0.881     80.040  53.495871     2.1264      7.504    43.0981 1.2362e-01     3.8319      9.612     13.942     8.4023   999.9012 0.0000e+00
      9.805      0.035     0.1034      0.882     80.119  53.532633     2.0561      7.502    42.7602 1.2362e-01     3.8368      9.614     13.944     8.4024   999.9011 0.0000e+00
      9.811      0.040     0.1038      0.886     80.119  53.518999     1.9380      7.499    42.4488 1.2366e-01     3.9300      9.618     13.950     8.4074   999.9005 0.0000e+00
      9.826      0.044     0.1043      0.889     80.225  53.585134     1.8863      7.496    42.1730 1.2366e-01     4.0086      9.635     13.975     8.4209   999.9000 0.0000e+00
      9.842      0.046     0.1025      0.874     80.107  53.506377     1.8912      7.494    42.0062 1.2364e-01     4.0331      9.655     14.002     8.4211   999.9004 0.0000e+00
      9.857      0.046     0.1008      0.860     79.932  53.392634     1.8926      7.492    41.8084 1.2367e-01     3.9320      9.666     14.020     8.4050   999.9014 0.0000e+00
      9.869      0.041     0.1028      0.877     79.958  53.416926     1.8859      7.492    41.5026 1.2372e-01     3.6701      9.679     14.038     8.3949   999.9021 0.0000e+00
      9.879      0.034     0.1044      0.891     80.148  53.545984     1.8799      7.491    41.2339 1.2376e-01     3.4896      9.690     14.055     8.3942   999.9024 0.0000e+00
      9.886      0.029     0.1045      0.891     80.834  54.000125     1.8799      7.489    40.9686 1.2381e-01     3.4851      9.696     14.063     8.3944   999.9022 0.0000e+00
      9.890      0.029     0.1056      0.901     82.299  54.969009     1.9210      7.487    40.6172 1.2380e-01     3.4852      9.698     14.066     8.3955   999.9021 0.0000e+00
      9.893      0.032     0.1057      0.902     83.845  55.984914     1.9954      7.486    40.2549 1.2378e-01     3.3926      9.701     14.070     8.4021   999.9018 0.0000e+00
      9.898      0.037     0.1035      0.882     84.744  56.562558     2.0335      7.485    39.9442 1.2377e-01     3.3165      9.704     14.075     8.4043   999.9016 0.0000e+00
      9.909      0.043     0.1008      0.858     85.141  56.806764     2.0358      7.483    39.7000 1.2373e-01     3.3187      9.715     14.091     8.4001   999.9021 0.0000e+00
      9.925      0.048     0.0996      0.848     85.310  56.904338     2.0048      7.481    39.4532 1.2367e-01     3.3860      9.734     14.118     8.3960   999.9032 0.0000e+00
      9.941      0.053     0.0997      0.849     85.439  56.979833     1.9543      7.478    39.1975 1.2362e-01     3.5074      9.750     14.141     8.3856   999.9046 0.0000e+00
      9.955      0.057     0.1015      0.864     85.703  57.147693     1.9359      7.475    39.1033 1.2366e-01     3.5738      9.762     14.160     8.3696   999.9059 0.0000e+00
      9.969      0.059     0.1037      0.883     86.010  57.345402     1.9304      7.473    39.1738 1.2374e-01     3.5337      9.776     14.179     8.3567   999.9070 0.0000e+00
      9.981      0.061     0.1052      0.897     86.195  57.464092     1.9225      7.471    39.1895 1.2374e-01     3.4807      9.788     14.196     8.3482   999.9076 0.0000e+00
      9.996      0.063     0.1072      0.913     86.256  57.502564     1.8839      7.470    39.1220 1.2373e-01     3.5229      9.801     14.215     8.3423   999.9081 0.0000e+00
     10.014      0.066     0.1072      0.913     86.337  57.556399     1.8008      7.468    39.0453 1.2374e-01     3.6513      9.820     14.242     8.3381   999.9085 0.0000e+00
     10.034      0.069     0.1029      0.876     86.694  57.797301     1.7593      7.465    38.9509 1.2371e-01     3.7541      9.841     14.273     8.3345   999.9090 0.0000e+00
     10.052      0.070     0.0999      0.851     87.279  58.191298     1.7634      7.461    38.8408 1.2371e-01     3.7827      9.859     14.299     8.3313   999.9094 0.0000e+00
     10.069      0.068     0.1014      0.863     87.659  58.444069     1.7725      7.459    38.6605 1.2373e-01     3.7683      9.874     14.321     8.3303   999.9095 0.0000e+00
     10.087      0.063     0.1004      0.855     87.946  58.629519     1.7914      7.458    38.4915 1.2371e-01     3.7440      9.893     14.348     8.3296   999.9096 0.0000e+00
     10.105      0.059     0.0971      0.826     88.373  58.908471     1.8011      7.457    38.3470 1.2369e-01     3.7512      9.912     14.376     8.3310   999.9098 0.0000e+00
     10.119      0.057     0.0974      0.829     88.548  59.020850     1.8034      7.455    38.1175 1.2373e-01     3.7899      9.925     14.395     8.3364   999.9098 0.0000e+00
     10.130      0.057     0.1007      0.858     88.572  59.035092     1.7669      7.452    37.8676 1.2376e-01     3.6873      9.934     14.407     8.3357   999.9100 0.0000e+00
     10.141      0.058     0.1047      0.892     89.115  59.398398     1.6812      7.449    37.6482 1.2376e-01     3.4284      9.942     14.421     8.3301   999.9105 0.0000e+00
     10.156      0.061     0.1073      0.914     90.276  60.172629     1.6342      7.446    37.4440 1.2376e-01     3.2819      9.959     14.444     8.3273   999.9110 0.0000e+00
     10.173      0.066     0.1075      0.916     91.660  61.088130     1.6315      7.444    37.2054 1.2373e-01     3.2922      9.978     14.472     8.3248   999.9112 0.0000e+00
     10.190      0.069     0.1065      0.906     93.168  62.078895     1.6310      7.442    36.9142 1.2371e-01     3.3884      9.993     14.493     8.3231   999.9113 0.0000e+00
     10.209      0.070     0.1055      0.898     95.055  63.317795     1.6365      7.440    36.6766 1.2368e-01     3.5277     10.011     14.519     8.3252   999.9114 0.0000e+00
     10.230      0.068     0.1048      0.892     98.200  65.389819     1.6383      7.439    36.4827 1.2360e-01     3.5671     10.034     14.552     8.3269   999.9119 0.0000e+00
     10.250      0.065     0.1035      0.881    103.305  68.761178     1.6262      7.436    36.2056 1.2356e-01     3.5373     10.054     14.582     8.3225   999.9128 0.0000e+00
     10.266      0.061     0.0997      0.848    107.706  71.657989     1.5681      7.433    35.9068 1.2362e-01     3.6587     10.069     14.603     8.3143   999.9140 0.0000e+00
     10.278      0.055     0.0970      0.825    108.555  72.185914     1.4738      7.430    35.6231 1.2372e-01     3.8882     10.079     14.619     8.3048   999.9152 0.0000e+00
     10.290      0.049     0.1001      0.850    107.792  71.647609     1.4308      7.428    35.3571 1.2379e-01     3.9859     10.090     14.635     8.2927   999.9168 0.0000e+00
     10.305      0.043     0.1023      0.869    107.035  71.126606     1.4470      7.425    35.1856 1.2380e-01     3.9879     10.107     14.659     8.2803   999.9200 0.0000e+00
     10.317      0.037     0.1008      0.856    105.186  69.892278     1.4956      7.422    35.0121 1.2371e-01     3.9121     10.119     14.677     8.2651   999.9234 0.0000e+00
     10.324      0.031     0.0998      0.847    102.679  68.231597     1.5514      7.419    34.8075 1.2359e-01     3.6918     10.124     14.684     8.2453   999.9244 0.0000e+00
     10.330      0.025     0.0992      0.842    101.387  67.387012     1.5670      7.417    34.6052 1.2361e-01     3.5206     10.130     14.694     8.2297   999.9249 0.0000e+00
     10.336      0.020     0.0984      0.835    101.435  67.436686     1.5626      7.414    34.2872 1.2374e-01     3.5129     10.138     14.705     8.2222   999.9255 0.0000e+00
     10.340      0.019     0.0974      0.828    101.594  67.560799     1.5581      7.411    33.8877 1.2379e-01     3.5330     10.141     14.709     8.2192   999.9249 0.0000e+00
     10.340      0.019     0.0964      0.819    101.269  67.361964     1.5300      7.409    33.5606 1.2376e-01     3.4688     10.139     14.707     8.2219   999.9234 0.0000e+00
     10.344      0.022     0.0969      0.824    101.093  67.257557     1.4839      7.406    33.2580 1.2372e-01     3.3598     10.142     14.710     8.2305   999.9225 0.0000e+00
     10.352      0.029     0.0988      0.840    102.692  68.332662     1.4601      7.401    32.8095 1.2372e-01     3.2957     10.152     14.724     8.2393   999.9222 0.0000e+00
     10.360      0.041     0.0979      0.832    108.520  72.223477     1.4681      7.396    32.2676 1.2369e-01     3.2837     10.160     14.736     8.2479   999.9218 0.0000e+00
     10.367      0.053     0.0945      0.803    117.389  78.118352     1.5455      7.390    31.8691 1.2365e-01     3.4120     10.164     14.742     8.2586   999.9209 0.0000e+00
     10.379      0.062     0.0940      0.799    120.022  79.824945     1.6836      7.385    31.6906 1.2362e-01     3.6668     10.174     14.757     8.2634   999.9203 0.0000e+00
     10.401      0.065     0.0967      0.822    113.696  75.558818     1.7599      7.380    31.6576 1.2361e-01     3.8083     10.198     14.789     8.2671   999.9206 0.0000e+00
     10.429      0.062     0.0994      0.844    107.345  71.313133     1.7656      7.375    31.6428 1.2366e-01     3.8118     10.229     14.836     8.2773   999.9216 0.0000e+00
     10.452      0.054     0.1009      0.857    105.551  70.147311     1.7180      7.370    31.5114 1.2373e-01     3.6763     10.254     14.873     8.2793   999.9270 0.0000e+00
     10.464      0.043     0.1009      0.857    106.096  70.556078     1.6266      7.365    31.3592 1.2375e-01     3.4480     10.265     14.889     8.2553   999.9303 0.0000e+00
     10.467      0.028     0.0997      0.847    107.256  71.359764     1.5792      7.360    31.3510 1.2377e-01     3.3465     10.266     14.890     8.2176   999.9281 0.0000e+00
     10.467      0.014     0.0978      0.832    109.416  72.806806     1.5702      7.356    31.3268 1.2380e-01     3.3337     10.264     14.886     8.2039   999.9263 0.0000e+00
     10.468      0.006     0.0967      0.823    111.984  74.507740     1.5088      7.351    31.1524 1.2377e-01     3.3253     10.266     14.888     8.2242   999.9249 0.0000e+00
     10.468      0.004     0.0962      0.818    113.534  75.518983     1.4010      7.346    30.8776 1.2369e-01     3.3434     10.267     14.891     8.2527   999.9236 0.0000e+00
     10.468      0.005     0.0955      0.811    114.197  75.939597     1.3412      7.343    30.3271 1.2362e-01     3.3235     10.265     14.889     8.2679   999.9227 0.0000e+00
     10.469      0.006     0.0957      0.813    114.646  76.222601     1.3233      7.340    29.4006 1.2363e-01     3.2811     10.265     14.888     8.2716   999.9234 0.0000e+00
     10.472      0.006     0.0956      0.812    115.308  76.651152     1.3061      7.337    28.5374 1.2370e-01     3.2571     10.269     14.894     8.2672   999.9250 0.0000e+00
     10.474      0.006     0.0972      0.826    116.402  77.368682     1.3068      7.333    27.9774 1.2372e-01     3.1975     10.273     14.898     8.2560   999.9261 0.0000e+00
     10.476      0.006     0.1009      0.857    117.791  78.283458     1.3233      7.330    27.2760 1.2367e-01     3.1171     10.273     14.900     8.2463   999.9270 0.0000e+00
     10.478      0.005     0.1009      0.856    119.263  79.252097     1.3417      7.327    26.1650 1.2366e-01     3.0707     10.274     14.902     8.2399   999.9275 0.0000e+00
     10.478      0.004     0.0985      0.836    120.292  79.920807     1.3732      7.325    25.2130 1.2371e-01     3.0632     10.276     14.904     8.2350   999.9280 0.0000e+00
     10.479      0.004     0.0987      0.838    120.641  80.134964     1.4173      7.322    24.8003 1.2373e-01     3.0595     10.276     14.905     8.2313   999.9287 0.0000e+00
     10.480      0.004     0.1009      0.857    120.829  80.251157     1.4411      7.320    24.4444 1.2370e-01     3.0582     10.277     14.906     8.2276   999.9294 0.0000e+00
     10.481      0.004     0.1003      0.852    121.094  80.435094     1.4448      7.318    23.9215 1.2365e-01     3.0802     10.278     14.908     8.2245   999.9302 0.0000e+00
     10.482      0.005     0.0975      0.828    121.385  80.641389     1.4448      7.315    23.3817 1.2364e-01     3.0957     10.279     14.909     8.2190   999.9311 0.0000e+00
     10.483      0.005     0.0970      0.824    121.763  80.900663     1.4755      7.312    22.9084 1.2370e-01     3.1475     10.280     14.911     8.2084   999.9318 0.0000e+00
     10.485      0.006     0.0967      0.821    122.232  81.216220     1.5382      7.310    22.5873 1.2374e-01     3.2482     10.282     14.913     8.2034   999.9321 0.0000e+00
     10.487      0.006     0.0955      0.810    122.800  81.594067     1.5696      7.308    22.5101 1.2371e-01     3.2973     10.284     14.916     8.2098   999.9318 0.0000e+00
     10.488      0.006     0.0971      0.824    123.468  82.033880     1.5699      7.306    22.6637 1.2365e-01     3.3149     10.285     14.918     8.2166   999.9315 0.0000e+00
     10.489      0.006     0.0996      0.845    124.317  82.589651     1.5674      7.304    22.8092 1.2364e-01     3.2981     10.287     14.919     8.2191   999.9315 0.0000e+00
     10.491      0.007     0.0995      0.845    125.578  83.415123     1.5650      7.303    22.6345 1.2369e-01     3.1922     10.289     14.922     8.2204   999.9315 0.0000e+00
     10.493      0.007     0.0990      0.840    127.053  84.379921     1.5680      7.301    22.1003 1.2369e-01     3.1154     10.290     14.924     8.2208   999.9317 0.0000e+00
     10.495      0.008     0.0984      0.835    127.955  84.965774     1.5688      7.298    21.4269 1.2365e-01     3.1237     10.292     14.926     8.2195   999.9321 0.0000e+00
     10.496      0.008     0.0981      0.833    127.863  84.899529     1.5304      7.297    20.7724 1.2364e-01     3.2271     10.293     14.929     8.2159   999.9326 0.0000e+00
     10.499      0.008     0.0976      0.829    127.206  84.469730     1.4683      7.297    20.2105 1.2361e-01     3.4155     10.295     14.933     8.2111   999.9333 0.0000e+00
     10.501      0.008     0.0960      0.815    126.522  84.032125     1.4508      7.296    19.7952 1.2359e-01     3.5005     10.298     14.936     8.2048   999.9345 0.0000e+00
     10.504      0.008     0.0963      0.817    126.158  83.807782     1.4570      7.293    19.5370 1.2363e-01     3.5013     10.300     14.940     8.1982   999.9353 0.0000e+00
     10.506      0.008     0.0970      0.824    126.594  84.111353     1.4825      7.290    19.4121 1.2368e-01     3.4907     10.303     14.943     8.1952   999.9354 0.0000e+00
     10.508      0.007     0.0965      0.820    127.770  84.903054     1.5433      7.289    19.4027 1.2370e-01     3.4045     10.305     14.945     8.1988   999.9348 0.0000e+00
     10.509      0.007     0.0962      0.817    128.456  85.363214     1.5763      7.289    19.4232 1.2369e-01     3.3431     10.306     14.947     8.2068   999.9341 0.0000e+00
     10.510 -9.990e-29 -9.990e-29 -9.990e-29 -9.990e-29 -9.990e-29 -9.990e-29 -9.990e-29 -9.990e-29 1.2369e-01 -9.990e-29     10.307     14.949     8.2139   999.9334 0.0000e+00
     10.512 -9.990e-29 -9.990e-29 -9.990e-29 -9.990e-29 -9.990e-29 -9.990e-29 -9.990e-29 -9.990e-29 1.2375e-01 -9.990e-29     10.309     14.952     8.2194   999.9332 0.0000e+00
     10.514 -9.990e-29 -9.990e-29 -9.990e-29 -9.990e-29 -9.990e-29 -9.990e-29 -9.990e-29 -9.990e-29 1.2383e-01 -9.990e-29     10.311     14.955     8.2239   999.9336 0.0000e+00
     10.515 -9.990e-29 -9.990e-29 -9.990e-29 -9.990e-29 -9.990e-29 -9.990e-29 -9.990e-29 -9.990e-29 1.2386e-01 -9.990e-29     10.312     14.956     8.2261   999.9339 0.0000e+00
