* Sea-Bird SBE19plus  Data File:
* FileName = C:\DATA\061719_FCR_0003.hex
* Software version 2.8.0.119 SB_Terminal.dll
* Temperature SN = 7809
* Conductivity SN = 7809
* System UpLoad Time = Jun 17 2019 17:01:01
* <ApplicationData>
* <Seaterm232>
* <SoftwareVersion>2.8.0.119</SoftwareVersion>
* <BuildDate>07-Nov-2018</BuildDate>
* </Seaterm232>
* </ApplicationData>
* cast   3 17 Jun 2019 09:56:47 samples 2312 to 3377, avg = 1, stop = mag switch
# nquan = 16
# nvalues = 878                         
# units = specified
# name 0 = depFM: Depth [fresh water, m]
# name 1 = dz/dtM: Descent Rate [m/s]
# name 2 = sbeox0Mg/L: Oxygen, SBE 43 [mg/l]
# name 3 = sbeox0PS: Oxygen, SBE 43 [% saturation]
# name 4 = specc: Specific Conductance [uS/cm]
# name 5 = c0uS/cm: Conductivity [uS/cm]
# name 6 = flECO-AFL: Fluorescence, WET Labs ECO-AFL/FL [mg/m^3]
# name 7 = ph: pH
# name 8 = orp: Oxidation Reduction Potential [mV]
# name 9 = par/sat/log: PAR/Logarithmic, Satlantic
# name 10 = turbWETntu0: Turbidity, WET Labs ECO [NTU]
# name 11 = prdM: Pressure, Strain Gauge [db]
# name 12 = prdE: Pressure, Strain Gauge [psi]
# name 13 = tv290C: Temperature [ITS-90, deg C]
# name 14 = density00: Density [density, kg/m^3]
# name 15 = flag:  0.000e+00
# span 0 =     -0.581,      9.633       
# span 1 =     -0.105,      0.180       
# span 2 =     3.8299,    11.3265       
# span 3 =     34.623,    117.275       
# span 4 =      0.927,     58.591       
# span 5 =   0.974986,  57.999341       
# span 6 =    -1.3313,     3.9072       
# span 7 =      7.297,     10.288       
# span 8 = -1240.7455,   435.2813       
# span 9 = 1.2351e-01, 1.7716e+03       
# span 10 =    -9.9491,   851.6011      
# span 11 =     -0.570,      9.447      
# span 12 =     -0.826,     13.701      
# span 13 =    10.3465,    27.6064      
# span 14 =   996.3537,   999.7302      
# span 15 = 0.0000e+00, 0.0000e+00      
# interval = seconds: 0.25
# start_time = Jun 17 2019 09:56:47 [Instrument's time stamp, header]
# bad_flag = -9.990e-29
# <Sensors count="9" >
#   <sensor Channel="1" >
#     <!-- Count, Temperature -->
#     <TemperatureSensor SensorID="58" >
#       <SerialNumber>7809</SerialNumber>
#       <CalibrationDate>24-Mar-19</CalibrationDate>
#       <A0>1.21792325e-003</A0>
#       <A1>2.81669265e-004</A1>
#       <A2>-1.60333336e-006</A2>
#       <A3>1.98414625e-007</A3>
#       <Slope>1.00000000</Slope>
#       <Offset>0.0000</Offset>
#     </TemperatureSensor>
#   </sensor>
#   <sensor Channel="2" >
#     <!-- Frequency 0, Conductivity -->
#     <ConductivitySensor SensorID="3" >
#       <SerialNumber>7809</SerialNumber>
#       <CalibrationDate>24-Mar-19</CalibrationDate>
#       <UseG_J>1</UseG_J>
#       <!-- Cell const and series R are applicable only for wide range sensors. -->
#       <SeriesR>0.0000</SeriesR>
#       <CellConst>2000.0000</CellConst>
#       <ConductivityType>0</ConductivityType>
#       <Coefficients equation="0" >
#         <A>0.00000000e+000</A>
#         <B>0.00000000e+000</B>
#         <C>0.00000000e+000</C>
#         <D>0.00000000e+000</D>
#         <M>0.0</M>
#         <CPcor>-9.57000000e-008</CPcor>
#       </Coefficients>
#       <Coefficients equation="1" >
#         <G>-1.00589325e+000</G>
#         <H>1.26816302e-001</H>
#         <I>-1.51560448e-004</I>
#         <J>2.67137274e-005</J>
#         <CPcor>-9.57000000e-008</CPcor>
#         <CTcor>3.2500e-006</CTcor>
#         <!-- WBOTC not applicable unless ConductivityType = 1. -->
#         <WBOTC>0.00000000e+000</WBOTC>
#       </Coefficients>
#       <Slope>1.00000000</Slope>
#       <Offset>0.00000</Offset>
#     </ConductivitySensor>
#   </sensor>
#   <sensor Channel="3" >
#     <!-- Count, Pressure, Strain Gauge -->
#     <PressureSensor SensorID="46" >
#       <SerialNumber>7809</SerialNumber>
#       <CalibrationDate>11-Mar-19</CalibrationDate>
#       <PA0>4.56561833e-002</PA0>
#       <PA1>4.85095118e-004</PA1>
#       <PA2>-2.88327090e-012</PA2>
#       <PTEMPA0>-5.48784562e+001</PTEMPA0>
#       <PTEMPA1>5.53756816e+001</PTEMPA1>
#       <PTEMPA2>-5.86727098e-001</PTEMPA2>
#       <PTCA0>5.25246745e+005</PTCA0>
#       <PTCA1>1.22304214e+001</PTCA1>
#       <PTCA2>-3.56745036e-001</PTCA2>
#       <PTCB0>2.51668750e+001</PTCB0>
#       <PTCB1>3.75000000e-004</PTCB1>
#       <PTCB2>0.00000000e+000</PTCB2>
#       <Offset>0.000000</Offset>
#     </PressureSensor>
#   </sensor>
#   <sensor Channel="4" >
#     <!-- A/D voltage 0, Oxygen, SBE 43 -->
#     <OxygenSensor SensorID="38" >
#       <SerialNumber>0434</SerialNumber>
#       <CalibrationDate>13-Apr-19</CalibrationDate>
#       <Use2007Equation>1</Use2007Equation>
#       <CalibrationCoefficients equation="0" >
#         <!-- Coefficients for Owens-Millard equation. -->
#         <Boc>0.0000</Boc>
#         <Soc>0.0000e+000</Soc>
#         <offset>0.0000</offset>
#         <Pcor>0.00e+000</Pcor>
#         <Tcor>0.0000</Tcor>
#         <Tau>0.0</Tau>
#       </CalibrationCoefficients>
#       <CalibrationCoefficients equation="1" >
#         <!-- Coefficients for Sea-Bird equation - SBE calibration in 2007 and later. -->
#         <Soc>4.2007e-001</Soc>
#         <offset>-0.6109</offset>
#         <A>-4.3656e-003</A>
#         <B> 1.7017e-004</B>
#         <C>-2.5341e-006</C>
#         <D0> 2.5826e+000</D0>
#         <D1> 1.92634e-004</D1>
#         <D2>-4.64803e-002</D2>
#         <E> 3.6000e-002</E>
#         <Tau20> 1.1800</Tau20>
#         <H1>-3.3000e-002</H1>
#         <H2> 5.0000e+003</H2>
#         <H3> 1.4500e+003</H3>
#       </CalibrationCoefficients>
#     </OxygenSensor>
#   </sensor>
#   <sensor Channel="5" >
#     <!-- A/D voltage 1, PAR/Logarithmic, Satlantic -->
#     <PARLog_SatlanticSensor SensorID="76" >
#       <SerialNumber>1122</SerialNumber>
#       <CalibrationDate>08-May-2019</CalibrationDate>
#       <a0>9.7456e-001</a0>
#       <a1>8.1640e-001</a1>
#       <Im>1.3589e+000</Im>
#       <Multiplier>1.0000e+000</Multiplier>
#     </PARLog_SatlanticSensor>
#   </sensor>
#   <sensor Channel="6" >
#     <!-- A/D voltage 2, pH -->
#     <pH_Sensor SensorID="43" >
#       <SerialNumber>0363</SerialNumber>
#       <CalibrationDate>15-Apr-19</CalibrationDate>
#       <Slope>4.5952</Slope>
#       <Offset>2.5370</Offset>
#     </pH_Sensor>
#   </sensor>
#   <sensor Channel="7" >
#     <!-- A/D voltage 3, Oxidation Reduction Potential -->
#     <OxidationReductionPotentialSensor SensorID="41" >
#       <SerialNumber>0363</SerialNumber>
#       <CalibrationDate>15-Apr-19</CalibrationDate>
#       <B>2.499480</B>
#       <M>-0.496195</M>
#       <Offset>0.0</Offset>
#     </OxidationReductionPotentialSensor>
#   </sensor>
#   <sensor Channel="8" >
#     <!-- A/D voltage 4, Fluorometer, WET Labs ECO-AFL/FL -->
#     <FluoroWetlabECO_AFL_FL_Sensor SensorID="20" >
#       <SerialNumber>FLNTURT-2496</SerialNumber>
#       <CalibrationDate>08-May-2019</CalibrationDate>
#       <ScaleFactor>5.00000000e+001</ScaleFactor>
#       <!-- Dark output -->
#       <Vblank>0.0550</Vblank>
#     </FluoroWetlabECO_AFL_FL_Sensor>
#   </sensor>
#   <sensor Channel="9" >
#     <!-- A/D voltage 5, Turbidity Meter, WET Labs, ECO-NTU -->
#     <TurbidityMeter SensorID="67" >
#       <SerialNumber>FLNTURT-2496</SerialNumber>
#       <CalibrationDate>08-May-2019</CalibrationDate>
#       <ScaleFactor>189.000000</ScaleFactor>
#       <!-- Dark output -->
#       <DarkVoltage>0.071000</DarkVoltage>
#     </TurbidityMeter>
#   </sensor>
# </Sensors>
# datcnv_date = Jun 17 2019 17:05:34, 7.26.7.129 [datcnv_vars = 15]
# datcnv_in = C:\DATA\061719_FCR_0003.hex C:\DATA\SBE19plusV2_7809.xmlcon
# datcnv_skipover = 0
# datcnv_ox_hysteresis_correction = yes
# datcnv_ox_tau_correction = yes
# filter_date = Jun 17 2019 17:06:38, 7.26.7.129
# filter_in = C:\DATA\061719_FCR_0003.cnv
# filter_low_pass_tc_A = 0.030
# filter_low_pass_tc_B = 0.150
# filter_low_pass_A_vars = prdM prdE tv290C density00
# filter_low_pass_B_vars = depFM dz/dtM sbeox0Mg/L sbeox0PS specc c0uS/cm flECO-AFL ph orp par/sat/log turbWETntu0
# alignctd_date = Jun 17 2019 17:07:04, 7.26.7.129
# alignctd_in = C:\DATA\061719_FCR_0003.cnv
# alignctd_adv = dz/dtM 1.000, sbeox0Mg/L 1.000, sbeox0PS 1.000, specc 1.000, c0uS/cm 1.000, flECO-AFL 1.000, ph 1.000, orp 1.000, turbWETntu0 1.000                                                                                 
# file_type = ascii
*END*
     -0.581 8.6276e-20     7.6195     96.654      1.010   1.062309    -0.1180      7.337 -1240.7455 2.8741e+02    -0.3707     -0.569     -0.826    27.5994   996.3554 0.0000e+00
     -0.580 7.8525e-21     7.6200     96.659      1.008   1.060214    -0.1122      7.322 -1240.7455 6.5362e+02    -0.3649     -0.569     -0.825    27.5992   996.3555 0.0000e+00
     -0.580 8.1191e-22     7.6204     96.663      0.987   1.038222    -0.1077      7.305 -1240.7455 1.2875e+03    -0.3864     -0.569     -0.825    27.5988   996.3555 0.0000e+00
     -0.580 1.1523e-21     7.6204     96.661      0.998   1.049837    -0.1068      7.297 -1240.7455 1.2853e+03    -0.4993     -0.570     -0.826    27.5981   996.3557 0.0000e+00
     -0.580 1.1968e-20     7.6211     96.669      1.021   1.073932    -0.1183      7.301 -1240.7455 6.6445e+02    -0.5508     -0.569     -0.825    27.5970   996.3560 0.0000e+00
     -0.580 1.3158e-19     7.6217     96.677      1.023   1.076113    -0.1255      7.307 -1240.7455 3.4211e+02    -0.5171     -0.569     -0.825    27.5965   996.3562 0.0000e+00
     -0.581 1.4474e-18     7.6203     96.660      1.023   1.076218    -0.1162      7.311 -1240.7455 6.6034e+02    -0.5179     -0.569     -0.826    27.5962   996.3563 0.0000e+00
     -0.581 1.5921e-17     7.6189     96.643      1.022   1.075199    -0.1093      7.314 -1240.7455 1.3072e+03    -0.5277     -0.570     -0.826    27.5949   996.3566 0.0000e+00
     -0.581 1.7513e-16     7.6195     96.650      1.011   1.063785    -0.1117      7.318 -1240.7455 1.6660e+03    -0.5379     -0.569     -0.825    27.5942   996.3568 0.0000e+00
     -0.580 1.9265e-15     7.6207     96.664      1.012   1.064936    -0.1106      7.321 -1240.7455 1.7125e+03    -0.5420     -0.569     -0.826    27.5943   996.3568 0.0000e+00
     -0.580 2.1191e-14     7.6212     96.669      1.035   1.089118    -0.1050      7.323 -1240.7455 1.7344e+03    -0.5122     -0.568     -0.825    27.5949   996.3566 0.0000e+00
     -0.580 2.3310e-13     7.6216     96.671      1.048   1.102719    -0.1039      7.326 -1240.7455 1.7212e+03    -0.5054     -0.569     -0.824    27.5951   996.3566 0.0000e+00
     -0.580 2.5641e-12     7.6226     96.682      1.048   1.102674    -0.1069      7.331 -1240.7455 1.6819e+03    -0.5248     -0.569     -0.825    27.5949   996.3567 0.0000e+00
     -0.580 2.8205e-11     7.6231     96.687      1.034   1.088567    -0.1065      7.336 -1240.7455 1.6520e+03    -0.5175     -0.569     -0.825    27.5947   996.3567 0.0000e+00
     -0.580 3.1026e-10     7.6238     96.694      1.006   1.058872    -0.1078      7.338 -1240.7455 1.3880e+03    -0.5158     -0.569     -0.825    27.5929   996.3572 0.0000e+00
     -0.580 3.4129e-09     7.6249     96.706      0.947   0.997076    -0.1130      7.339 -1240.7455 1.1284e+03    -0.5365     -0.569     -0.825    27.5914   996.3577 0.0000e+00
     -0.580 3.7541e-08     7.6235     96.689      0.927   0.974986    -0.1095      7.341 -1240.7454 1.3690e+03    -0.5380     -0.570     -0.826    27.5908   996.3578 0.0000e+00
     -0.580 4.1296e-07     7.6231     96.685      0.994   1.045220    -0.0909      7.341 -1240.7445 1.6250e+03    -0.5344     -0.569     -0.826    27.5898   996.3580 0.0000e+00
     -0.580      0.000     7.6241     96.697      1.033   1.085961    -0.0610      7.339 -1240.7346 1.5704e+03    -0.5255     -0.569     -0.826    27.5885   996.3585 0.0000e+00
     -0.580      0.000     7.6234     96.690      1.034   1.087422     0.2347      7.338 -1240.6257 1.1737e+03    -0.5286     -0.568     -0.824    27.5884   996.3584 0.0000e+00
     -0.580      0.001     7.6234     96.692      1.010   1.062886     0.8045      7.338 -1239.4277 5.2563e+02    -0.5401     -0.569     -0.825    27.5874   996.3587 0.0000e+00
     -0.580      0.001     7.6240     96.700      0.991   1.042737     1.1240      7.345 -1226.2493 1.8834e+02    -0.5001     -0.569     -0.825    27.5886   996.3584 0.0000e+00
     -0.579      0.002     7.6249     96.700      1.286   1.350675     1.1492      7.453 -1081.2871 1.8202e+02    -0.5038     -0.568     -0.824    27.5869   996.3588 0.0000e+00
     -0.579      0.007     7.6360     96.707      4.336   4.532707     1.0930      7.738  -504.8051 3.8519e+02    -0.7491     -0.568     -0.823    27.5912   996.3577 0.0000e+00
     -0.579      0.022     7.6882     96.746     12.448  12.897830     0.4613      8.109   213.1696 5.9789e+02    -3.2361     -0.569     -0.825    27.5871   996.3588 0.0000e+00
     -0.579      0.051     7.7925     96.815     23.526  24.079291    -0.6972      8.513   435.2813 6.7703e+02    -7.7971     -0.567     -0.823    27.5969   996.3562 0.0000e+00
     -0.576      0.088     7.9059     96.883     32.365  32.744370    -1.3309      8.942   376.8300 1.0566e+03    -9.9491     -0.569     -0.826    27.5831   996.3598 0.0000e+00
     -0.558      0.125     7.9968     96.951     35.510  35.574724    -1.3313      9.322   367.7781 1.4665e+03    -5.8240     -0.559     -0.811    27.6064   996.3537 0.0000e+00
     -0.513      0.154     8.0694     97.016     35.262  35.014841    -0.6672      9.609   362.7458 1.3322e+03    42.4392     -0.510     -0.739    27.3388   996.4304 0.0000e+00
     -0.448      0.173     8.1295     97.077     34.788  34.288779     0.5515      9.813   358.7463 1.1590e+03   130.9752     -0.441     -0.640    26.4357   996.6812 0.0000e+00
     -0.381      0.180     8.1793     97.174     34.657  33.967302     1.2144      9.958   355.2990 1.4434e+03   178.9887     -0.364     -0.528    25.5880   996.9107 0.0000e+00
     -0.332      0.173     8.2211     97.335     35.001  34.173942     1.2600     10.067   352.3836 1.7184e+03   179.3280     -0.317     -0.459    25.0617   997.0474 0.0000e+00
     -0.301      0.154     8.2581     97.559     35.487  34.565785     1.1115     10.149   349.7382 1.7481e+03   134.4220     -0.296     -0.430    24.6116   997.1619 0.0000e+00
     -0.271      0.131     8.2931     97.841     35.749  34.770094     0.8415     10.214   347.4913 1.7406e+03    51.3898     -0.266     -0.387    24.2414   997.2547 0.0000e+00
     -0.238      0.115     8.3260     98.163     35.875  34.867113     0.7009     10.259   344.9186 1.7425e+03     6.1033     -0.233     -0.338    23.9640   997.3235 0.0000e+00
     -0.209      0.109     8.3565     98.498     35.998  34.977193     0.6943     10.282   341.7770 1.7428e+03     2.0247     -0.201     -0.291    23.7934   997.3656 0.0000e+00
     -0.188      0.107     8.3875     98.863     36.045  35.022113     0.6928     10.288   339.4476 1.7319e+03     1.6504     -0.184     -0.267    23.6814   997.3932 0.0000e+00
     -0.165      0.100     8.4139     99.209     35.973  34.965952     0.6814     10.287   337.8351 1.7100e+03     1.5779     -0.166     -0.242    23.6134   997.4098 0.0000e+00
     -0.135      0.087     8.4294     99.494     35.834  34.869385     0.6779     10.283   336.9066 1.6409e+03     1.5735     -0.135     -0.195    23.5816   997.4178 0.0000e+00
     -0.102      0.071     8.4398     99.731     35.594  34.679661     0.6861     10.278   335.7925 1.3452e+03     1.5972     -0.097     -0.140    23.5752   997.4195 0.0000e+00
     -0.080      0.053     8.4457     99.844     35.210  34.322214     0.7111     10.275   333.5713 8.2680e+02     1.5706     -0.070     -0.102    23.5711   997.4207 0.0000e+00
     -0.074      0.030     8.4435     99.777     34.738  33.847744     0.7546     10.275   331.7312 5.5429e+02     1.5466     -0.072     -0.103    23.5770   997.4192 0.0000e+00
     -0.076      0.007     8.4312     99.567     34.353  33.448830     0.7782     10.271   330.8378 7.5924e+02     1.6025     -0.077     -0.111    23.6438   997.4029 0.0000e+00
     -0.080     -0.011     8.4042     99.207     34.223  33.306743     0.7801     10.261   329.8252 1.1471e+03     1.6561     -0.075     -0.109    23.7297   997.3819 0.0000e+00
     -0.088     -0.021     8.3342     98.361     34.260  33.335554     0.7784     10.248   328.2635 1.4520e+03     1.6378     -0.084     -0.122    23.7521   997.3763 0.0000e+00
     -0.099     -0.026     8.2192     96.983     34.286  33.352935     0.7743     10.233   326.9266 1.6355e+03     1.6098     -0.101     -0.147    23.7168   997.3847 0.0000e+00
     -0.105     -0.026     8.1249     95.844     34.269  33.326501     0.7824     10.213   326.3082 1.6939e+03     1.6125     -0.105     -0.152    23.6704   997.3958 0.0000e+00
     -0.108     -0.024     8.0794     95.288     34.284  33.333233     0.7987     10.192   326.0353 1.6932e+03     1.6052     -0.101     -0.149    23.6500   997.4008 0.0000e+00
     -0.116     -0.019     8.0531     94.961     34.329  33.370862     0.8070     10.170   325.7778 1.7222e+03     1.5875     -0.115     -0.167    23.6480   997.4013 0.0000e+00
     -0.124     -0.014     8.0237     94.601     34.365  33.400689     0.7782     10.150   325.3455 1.7516e+03     1.5613     -0.125     -0.182    23.6345   997.4045 0.0000e+00
     -0.126     -0.010     7.9816     94.093     34.410  33.440013     0.7187     10.129   324.9390 1.7558e+03     1.5183     -0.123     -0.179    23.6166   997.4088 0.0000e+00
     -0.126     -0.006     7.9182     93.340     34.439  33.465540     0.6863     10.109   324.4759 1.7520e+03     1.5270     -0.123     -0.178    23.6073   997.4110 0.0000e+00
     -0.126     -0.002     7.8310     92.310     34.429  33.455484     0.6899     10.091   323.6174 1.7517e+03     1.5677     -0.124     -0.179    23.5995   997.4130 0.0000e+00
     -0.125      0.001     7.7267     91.081     34.419  33.445351     0.7016     10.076   322.8191 1.7489e+03     1.5518     -0.123     -0.178    23.5903   997.4152 0.0000e+00
     -0.124      0.001     7.6140     89.760     34.440  33.469946     0.6974     10.061   322.3094 1.7433e+03     1.5304     -0.122     -0.177    23.5828   997.4171 0.0000e+00
     -0.123      0.001     7.5119     88.572     34.464  33.499026     0.6822     10.048   321.7567 1.7411e+03     1.5392     -0.121     -0.176    23.5802   997.4178 0.0000e+00
     -0.123      0.001     7.4344     87.672     34.504  33.543111     0.6831     10.038   321.3852 1.7394e+03     1.5274     -0.121     -0.176    23.5800   997.4177 0.0000e+00
     -0.124      0.001     7.3763     86.989     34.584  33.622203     0.6915     10.029   321.0865 1.7399e+03     1.5182     -0.121     -0.176    23.5789   997.4180 0.0000e+00
     -0.124      0.001     7.3342     86.487     34.595  33.630299     0.6877     10.021   320.2105 1.7401e+03     1.5588     -0.121     -0.176    23.5825   997.4172 0.0000e+00
     -0.123      0.001     7.3089     86.180     34.545  33.577537     0.6804     10.013   319.1382 1.7391e+03     1.5927     -0.121     -0.175    23.5952   997.4141 0.0000e+00
     -0.123      0.001     7.2918     85.971     34.525  33.555423     0.6810     10.005   318.1020 1.7307e+03     1.6005     -0.120     -0.175    23.6056   997.4116 0.0000e+00
     -0.122      0.001     7.2700     85.711     34.524  33.553309     0.6867      9.996   316.8887 1.6544e+03     1.6206     -0.120     -0.174    23.6063   997.4115 0.0000e+00
     -0.122      0.001     7.2360     85.306     34.524  33.551973     0.6889      9.984   316.0842 1.4334e+03     1.6051     -0.120     -0.174    23.6009   997.4128 0.0000e+00
     -0.122      0.001     7.1884     84.739     34.513  33.539267     0.6895      9.969   315.9461 1.0809e+03     1.5449     -0.119     -0.173    23.5944   997.4144 0.0000e+00
     -0.122      0.001     7.1298     84.044     34.502  33.526599     0.6854      9.951   315.9081 7.0656e+02     1.5156     -0.119     -0.173    23.5899   997.4154 0.0000e+00
     -0.122      0.001     7.0636     83.261     34.503  33.525725     0.6740      9.932   315.7962 4.7727e+02     1.5456     -0.120     -0.174    23.5880   997.4158 0.0000e+00
     -0.121      0.001     6.9939     82.440     34.506  33.528700     0.6733      9.917   315.8832 5.9871e+02     1.5802     -0.119     -0.173    23.5866   997.4162 0.0000e+00
     -0.121      0.001     6.9251     81.630     34.540  33.562579     0.6768      9.909   316.0134 1.0643e+03     1.5736     -0.118     -0.172    23.5835   997.4170 0.0000e+00
     -0.120      0.001     6.8576     80.837     34.595  33.618029     0.6733      9.904   315.7360 1.5172e+03     1.5646     -0.118     -0.171    23.5804   997.4177 0.0000e+00
     -0.120      0.000     6.7957     80.108     34.605  33.627979     0.6750      9.898   315.2822 1.7130e+03     1.5690     -0.117     -0.170    23.5778   997.4183 0.0000e+00
     -0.120 2.2322e-08     6.7553     79.631     34.597  33.619431     0.6797      9.893   315.1730 1.7478e+03     1.5605     -0.117     -0.169    23.5772   997.4185 0.0000e+00
     -0.121 2.4555e-07     6.7512     79.581     34.621  33.641598     0.6784      9.888   315.1032 1.7486e+03     1.5603     -0.118     -0.171    23.5797   997.4179 0.0000e+00
     -0.121 6.5197e-07     6.7854     79.983     34.622  33.642144     0.6754      9.883   314.9550 1.7474e+03     1.5670     -0.119     -0.173    23.5825   997.4173 0.0000e+00
     -0.121      0.000     6.8504     80.748     34.606  33.626035     0.6788      9.878   314.9291 1.7440e+03     1.5432     -0.119     -0.172    23.5824   997.4172 0.0000e+00
     -0.121      0.000     6.9341     81.735     34.617  33.637220     0.6937      9.872   314.7051 1.7216e+03     1.4692     -0.118     -0.171    23.5806   997.4177 0.0000e+00
     -0.121      0.001     7.0230     82.785     34.630  33.650451     0.7168      9.865   314.2255 1.5083e+03     1.3929     -0.118     -0.172    23.5798   997.4179 0.0000e+00
     -0.120      0.002     7.1040     83.740     34.638  33.659083     0.7332      9.855   313.8617 1.2851e+03     1.3753     -0.118     -0.171    23.5791   997.4180 0.0000e+00
     -0.119      0.002     7.1683     84.499     34.658  33.678126     0.7351      9.845   313.6617 1.4458e+03     1.3872     -0.117     -0.170    23.5783   997.4183 0.0000e+00
     -0.119      0.002     7.2108     84.999     34.670  33.690304     0.7482      9.835   313.4424 1.6844e+03     1.4382     -0.116     -0.169    23.5788   997.4181 0.0000e+00
     -0.119      0.002     7.2293     85.219     34.659  33.679402     0.7798      9.825   313.1038 1.7368e+03     1.5330     -0.116     -0.168    23.5802   997.4178 0.0000e+00
     -0.119      0.002     7.2267     85.189     34.653  33.673227     0.7968      9.813   312.6640 1.7341e+03     1.5832     -0.116     -0.169    23.5811   997.4176 0.0000e+00
     -0.118      0.002     7.2065     84.953     34.658  33.679112     0.7968      9.803   312.3406 1.7171e+03     1.5868     -0.116     -0.168    23.5810   997.4176 0.0000e+00
     -0.118      0.002     7.1743     84.577     34.664  33.687094     0.8146      9.793   312.2059 1.5676e+03     1.5438     -0.115     -0.167    23.5806   997.4177 0.0000e+00
     -0.117      0.002     7.1352     84.119     34.682  33.706274     0.8471      9.785   312.1534 1.4311e+03     1.4225     -0.115     -0.167    23.5808   997.4177 0.0000e+00
     -0.116      0.002     7.0924     83.616     34.696  33.720639     0.8604      9.778   312.1367 1.5797e+03     1.3340     -0.114     -0.165    23.5817   997.4175 0.0000e+00
     -0.116      0.002     7.0495     83.111     34.710  33.733853     0.8629      9.772   312.1758 1.7386e+03     1.3258     -0.113     -0.164    23.5827   997.4172 0.0000e+00
     -0.116      0.002     7.0064     82.602     34.715  33.739103     0.8593      9.766   312.1108 1.7538e+03     1.3232     -0.113     -0.164    23.5846   997.4167 0.0000e+00
     -0.115      0.002     6.9659     82.124     34.697  33.720660     0.8695      9.758   311.7799 1.7559e+03     1.3684     -0.113     -0.164    23.5878   997.4160 0.0000e+00
     -0.115      0.001     6.9331     81.737     34.677  33.701255     0.9170      9.751   311.4446 1.7529e+03     1.4784     -0.113     -0.163    23.5894   997.4156 0.0000e+00
     -0.114      0.001     6.9043     81.398     34.670  33.694861     0.9563      9.744   311.2406 1.7475e+03     1.5390     -0.112     -0.162    23.5891   997.4157 0.0000e+00
     -0.114      0.001     6.8753     81.058     34.682  33.706816     0.9636      9.739   311.1196 1.7474e+03     1.5435     -0.112     -0.162    23.5886   997.4158 0.0000e+00
     -0.114      0.001     6.8464     80.720     34.692  33.718873     0.9621      9.736   311.0149 1.7543e+03     1.5330     -0.112     -0.162    23.5879   997.4160 0.0000e+00
     -0.114      0.001     6.8157     80.362     34.685  33.713727     0.9640      9.735   310.4905 1.7524e+03     1.5105     -0.112     -0.162    23.5871   997.4161 0.0000e+00
     -0.114      0.001     6.7825     79.975     34.678  33.708061     0.9680      9.733   309.6825 1.6902e+03     1.5341     -0.112     -0.162    23.5873   997.4161 0.0000e+00
     -0.114      0.001     6.7461     79.550     34.682  33.713841     0.9768      9.729   309.3338 1.3696e+03     1.5882     -0.111     -0.161    23.5890   997.4157 0.0000e+00
     -0.113      0.001     6.7065     79.085     34.687  33.720141     0.9918      9.723   309.4577 1.1373e+03     1.5755     -0.111     -0.161    23.5913   997.4151 0.0000e+00
     -0.112      0.001     6.6666     78.616     34.687  33.720766     1.0116      9.717   309.6326 1.4402e+03     1.5438     -0.110     -0.160    23.5936   997.4146 0.0000e+00
     -0.112      0.001     6.6270     78.151     34.687  33.721399     1.0254      9.710   309.5554 1.7371e+03     1.5653     -0.110     -0.160    23.5961   997.4140 0.0000e+00
     -0.112      0.000     6.5870     77.681     34.692  33.727801     1.0281      9.702   309.2126 1.7674e+03     1.5738     -0.110     -0.160    23.5991   997.4133 0.0000e+00
     -0.113 3.3552e-08     6.5496     77.244     34.698  33.734716     1.0261      9.694   308.7571 1.7716e+03     1.5474     -0.110     -0.160    23.6013   997.4127 0.0000e+00
     -0.113 3.6907e-07     6.5176     76.870     34.703  33.741540     1.0196      9.686   308.3496 1.7705e+03     1.5416     -0.111     -0.160    23.6021   997.4125 0.0000e+00
     -0.113 3.6910e-07     6.4900     76.548     34.707  33.746846     1.0191      9.678   308.1574 1.7627e+03     1.5691     -0.111     -0.160    23.6028   997.4123 0.0000e+00
     -0.112 3.3860e-08     6.4651     76.257     34.693  33.735412     1.0281      9.668   308.1539 1.6932e+03     1.5854     -0.110     -0.160    23.6042   997.4120 0.0000e+00
     -0.112 6.4370e-09     6.4416     75.982     34.687  33.730221     1.0335      9.659   308.3075 1.4426e+03     1.5739     -0.110     -0.160    23.6062   997.4115 0.0000e+00
     -0.112 3.7533e-08     6.4190     75.717     34.704  33.747544     1.0324      9.650   308.3805 1.0042e+03     1.5621     -0.110     -0.160    23.6090   997.4108 0.0000e+00
     -0.112 4.0983e-07     6.3970     75.462     34.709  33.754478     1.0319      9.640   308.0897 5.9404e+02     1.5408     -0.110     -0.160    23.6121   997.4101 0.0000e+00
     -0.112      0.000     6.3743     75.199     34.703  33.750601     1.0363      9.630   307.7162 4.2784e+02     1.5134     -0.110     -0.160    23.6143   997.4096 0.0000e+00
     -0.112      0.000     6.3507     74.927     34.713  33.764136     1.0424      9.620   307.3921 5.3088e+02     1.5256     -0.110     -0.160    23.6154   997.4093 0.0000e+00
     -0.112      0.001     6.3242     74.624     34.736  33.791195     1.0536      9.611   307.0965 8.0809e+02     1.5571     -0.111     -0.160    23.6168   997.4089 0.0000e+00
     -0.112      0.001     6.2905     74.241     34.762  33.823930     1.0759      9.604   307.4115 1.1404e+03     1.5664     -0.110     -0.159    23.6194   997.4083 0.0000e+00
     -0.111      0.001     6.2521     73.806     34.772  33.842619     1.0956      9.598   308.1897 1.4293e+03     1.5719     -0.109     -0.159    23.6226   997.4075 0.0000e+00
     -0.111      0.001     6.2113     73.345     34.745  33.826787     1.0928      9.593   308.5041 1.6237e+03     1.5910     -0.109     -0.159    23.6266   997.4066 0.0000e+00
     -0.111      0.001     6.1660     72.827     34.732  33.822920     1.0675      9.589   308.3731 1.7230e+03     1.6015     -0.109     -0.158    23.6333   997.4049 0.0000e+00
     -0.110      0.001     6.1180     72.275     34.762  33.859333     1.0412      9.584   307.9828 1.7584e+03     1.5672     -0.108     -0.157    23.6434   997.4025 0.0000e+00
     -0.110      0.001     6.0700     71.720     34.783  33.886287     1.0270      9.579   307.3984 1.7668e+03     1.5371     -0.108     -0.157    23.6579   997.3990 0.0000e+00
     -0.110      0.001     6.0204     71.145     34.785  33.894969     1.0252      9.574   307.2434 1.7688e+03     1.5653     -0.108     -0.157    23.6741   997.3950 0.0000e+00
     -0.109      0.001     5.9704     70.567     34.785  33.900854     1.0458      9.569   307.4857 1.7683e+03     1.5808     -0.107     -0.156    23.6869   997.3919 0.0000e+00
     -0.109      0.001     5.9235     70.023     34.773  33.893981     1.0765      9.564   307.4887 1.7663e+03     1.5605     -0.107     -0.156    23.6966   997.3896 0.0000e+00
     -0.109      0.002     5.8795     69.510     34.749  33.875343     1.0923      9.559   307.2797 1.7653e+03     1.5495     -0.107     -0.155    23.7055   997.3874 0.0000e+00
     -0.109      0.002     5.8381     69.025     34.737  33.865903     1.0981      9.554   307.1957 1.7643e+03     1.5456     -0.107     -0.156    23.7145   997.3852 0.0000e+00
     -0.108      0.000     5.8008     68.587     34.777  33.906768     1.1116      9.550   307.1617 1.7627e+03     1.5460     -0.106     -0.155    23.7234   997.3831 0.0000e+00
     -0.107     -0.007     5.7657     68.173     34.861  33.988667     1.1434      9.554   306.7834 1.7611e+03     1.5538     -0.106     -0.154    23.7317   997.3811 0.0000e+00
     -0.107     -0.020     5.7328     67.786     34.903  34.031105     1.1700      9.560   305.9767 1.7591e+03     1.5415     -0.104     -0.152    23.7374   997.3797 0.0000e+00
     -0.108     -0.038     5.7071     67.485     34.845  33.975631     1.1658      9.565   305.2374 1.7571e+03     1.5288     -0.105     -0.151    23.7418   997.3785 0.0000e+00
     -0.114     -0.058     5.6892     67.280     34.752  33.889121     1.1264      9.569   304.9003 1.7607e+03     1.4984     -0.108     -0.157    23.7425   997.3784 0.0000e+00
     -0.132     -0.073     5.6797     67.182     34.793  33.937084     1.0666      9.566   304.6535 1.7639e+03     1.4366     -0.123     -0.178    23.7435   997.3781 0.0000e+00
     -0.165     -0.087     5.6845     67.264     34.958  34.111308     1.0316      9.556   304.1456 1.7502e+03     1.4041     -0.160     -0.231    23.7449   997.3776 0.0000e+00
     -0.201     -0.099     5.7108     67.655     35.024  34.218668     1.0336      9.554   303.4062 1.7343e+03     1.4007     -0.204     -0.295    23.7473   997.3768 0.0000e+00
     -0.225     -0.105     5.7768     68.606     34.932  34.219787     1.0644      9.558   302.7682 1.7229e+03     1.8863     -0.225     -0.327    23.7490   997.3762 0.0000e+00
     -0.242     -0.101     5.9128     70.421     34.792  34.188441     1.3780      9.554   302.5409 1.7103e+03     7.7671     -0.232     -0.336    23.7639   997.3726 0.0000e+00
     -0.268     -0.089     6.1335     73.194     34.685  34.157153     1.9642      9.543   302.5506 1.7156e+03    18.5620     -0.258     -0.374    23.7728   997.3704 0.0000e+00
     -0.302     -0.073     6.4224     76.710     34.651  34.158922     2.2913      9.532   302.5411 1.7271e+03    24.6192     -0.301     -0.437    23.8077   997.3617 0.0000e+00
     -0.325     -0.057     6.7457     80.591     34.693  34.209870     2.3253      9.523   302.2545 1.7259e+03    27.5526     -0.326     -0.472    23.9682   997.3221 0.0000e+00
     -0.335     -0.038     7.0668     84.429     34.748  34.265455     2.3405      9.517   301.6663 1.7209e+03    54.5866     -0.331     -0.479    24.1506   997.2770 0.0000e+00
     -0.337     -0.014     7.3435     87.734     34.743  34.259811     2.3616      9.509   301.1936 1.6691e+03   104.0869     -0.333     -0.482    24.2562   997.2507 0.0000e+00
     -0.336      0.010     7.5333     90.006     34.686  34.205103     2.3724      9.498   300.9272 1.5477e+03   130.8685     -0.330     -0.479    24.2975   997.2403 0.0000e+00
     -0.330      0.027     7.6171     91.012     34.654  34.175166     2.3408      9.483   300.6832 1.4132e+03   130.4130     -0.326     -0.472    24.3005   997.2396 0.0000e+00
     -0.319      0.035     7.6021     90.830     34.696  34.215170     1.9188      9.471   300.3080 1.1870e+03    98.1869     -0.316     -0.458    24.2995   997.2400 0.0000e+00
     -0.304      0.040     7.5136     89.755     34.797  34.307995     1.1456      9.465   299.8322 9.2822e+02    38.7644     -0.297     -0.431    24.2971   997.2407 0.0000e+00
     -0.289      0.042     7.3843     88.189     34.909  34.408990     0.7344      9.462   299.5763 7.5388e+02     6.3627     -0.281     -0.407    24.3003   997.2399 0.0000e+00
     -0.279      0.044     7.2404     86.464     34.988  34.484298     0.7011      9.454   299.6236 5.4318e+02     3.3701     -0.273     -0.395    24.3047   997.2388 0.0000e+00
     -0.273      0.046     7.1022     84.831     35.017  34.520415     0.6739      9.439   299.6291 3.8073e+02     2.7118     -0.268     -0.389    24.3048   997.2388 0.0000e+00
     -0.265      0.049     6.9863     83.479     35.010  34.528362     0.6391      9.422   299.4702 3.6506e+02     1.9761     -0.262     -0.380    24.2944   997.2415 0.0000e+00
     -0.252      0.052     6.9009     82.494     34.982  34.516938     0.6274      9.405   299.5102 4.9461e+02     1.6194     -0.249     -0.362    24.2752   997.2464 0.0000e+00
     -0.235      0.056     6.8410     81.808     34.960  34.509248     0.6276      9.381   299.5966 7.6086e+02     1.6099     -0.230     -0.334    24.2673   997.2485 0.0000e+00
     -0.216      0.056     6.7982     81.317     34.940  34.498858     0.6412      9.348   299.3099 1.0169e+03     1.5667     -0.211     -0.306    24.2824   997.2448 0.0000e+00
     -0.199      0.052     6.7651     80.933     34.890  34.454801     0.6707      9.318   299.0547 1.2378e+03     1.5234     -0.194     -0.281    24.3064   997.2388 0.0000e+00
     -0.185      0.044     6.7297     80.515     34.853  34.420818     0.6813      9.297   299.1781 1.4238e+03     1.5119     -0.181     -0.261    24.3309   997.2328 0.0000e+00
     -0.174      0.034     6.6846     79.976     34.836  34.405307     0.6824      9.287   299.3401 1.5133e+03     1.5269     -0.169     -0.245    24.3517   997.2277 0.0000e+00
     -0.168      0.024     6.6297     79.322     34.824  34.394192     0.6927      9.289   299.1200 1.5804e+03     1.5401     -0.163     -0.237    24.3638   997.2246 0.0000e+00
     -0.165      0.016     6.5647     78.548     34.842  34.413353     0.7201      9.300   298.4095 1.6393e+03     1.5411     -0.162     -0.236    24.3725   997.2225 0.0000e+00
     -0.164      0.011     6.4940     77.705     34.874  34.446585     0.7619      9.314   297.5471 1.6629e+03     1.5384     -0.160     -0.232    24.3759   997.2216 0.0000e+00
     -0.163      0.008     6.4243     76.872     34.905  34.478676     0.7908      9.325   296.9528 1.6986e+03     1.5396     -0.160     -0.231    24.3752   997.2218 0.0000e+00
     -0.162      0.007     6.3571     76.071     34.910  34.484040     0.8008      9.331   296.5578 1.7199e+03     1.5563     -0.160     -0.232    24.3764   997.2215 0.0000e+00
     -0.160      0.006     6.2964     75.347     34.872  34.447976     0.7781      9.334   296.3850 1.7184e+03     1.5104     -0.157     -0.228    24.3795   997.2207 0.0000e+00
     -0.156      0.006     6.2469     74.756     34.847  34.423426     0.7411      9.334   296.3264 1.7344e+03     1.3785     -0.152     -0.221    24.3816   997.2202 0.0000e+00
     -0.154      0.005     6.2055     74.261     34.864  34.441076     0.7266      9.332   295.9350 1.7540e+03     1.3048     -0.149     -0.217    24.3829   997.2200 0.0000e+00
     -0.155      0.003     6.1677     73.810     34.893  34.470973     0.7251      9.328   295.3530 1.7551e+03     1.3077     -0.152     -0.220    24.3841   997.2196 0.0000e+00
     -0.155      0.000     6.1343     73.413     34.888  34.467588     0.7049      9.325   294.9670 1.7509e+03     1.3145     -0.153     -0.221    24.3855   997.2193 0.0000e+00
     -0.155     -0.002     6.1060     73.078     34.882  34.463615     0.6555      9.323   294.8822 1.7514e+03     1.3220     -0.150     -0.218    24.3869   997.2190 0.0000e+00
     -0.155     -0.002     6.0776     72.743     34.903  34.486401     0.6223      9.322   294.9302 1.7477e+03     1.3326     -0.152     -0.220    24.3877   997.2188 0.0000e+00
     -0.157     -0.002     6.0472     72.383     34.904  34.489239     0.6236      9.323   295.1162 1.7410e+03     1.3441     -0.155     -0.225    24.3885   997.2186 0.0000e+00
     -0.158     -0.001     6.0175     72.031     34.911  34.497922     0.6459      9.324   295.7552 1.7385e+03     1.3957     -0.156     -0.226    24.3904   997.2180 0.0000e+00
     -0.157     -0.001     5.9889     71.693     34.939  34.527923     0.6749      9.321   296.4622 1.7357e+03     1.4980     -0.154     -0.222    24.3938   997.2171 0.0000e+00
     -0.157     -0.002     5.9625     71.381     34.944  34.534658     0.6875      9.316   296.6088 1.7383e+03     1.5653     -0.153     -0.221    24.3971   997.2163 0.0000e+00
     -0.157     -0.003     5.9382     71.094     34.923  34.515893     0.6953      9.311   296.2371 1.7455e+03     1.5865     -0.154     -0.223    24.3997   997.2157 0.0000e+00
     -0.157     -0.004     5.9130     70.796     34.896  34.491442     0.7084      9.306   295.5816 1.7487e+03     1.5901     -0.154     -0.224    24.4017   997.2152 0.0000e+00
     -0.158     -0.004     5.8871     70.490     34.895  34.492887     0.7248      9.301   295.0493 1.7516e+03     1.5766     -0.154     -0.224    24.4047   997.2145 0.0000e+00
     -0.162     -0.004     5.8617     70.189     34.935  34.533364     0.7374      9.296   295.3078 1.7535e+03     1.5541     -0.158     -0.230    24.4088   997.2134 0.0000e+00
     -0.167     -0.006     5.8382     69.910     34.937  34.536597     0.7302      9.293   296.1265 1.7538e+03     1.5145     -0.166     -0.240    24.4114   997.2127 0.0000e+00
     -0.166     -0.009     5.8219     69.725     34.862  34.468511     0.7242      9.289   296.6015 1.7529e+03     1.4588     -0.167     -0.240    24.4141   997.2121 0.0000e+00
     -0.162     -0.011     5.8189     69.700     34.795  34.408271     0.7255      9.280   296.5766 1.7466e+03     1.4055     -0.156     -0.226    24.4183   997.2111 0.0000e+00
     -0.164     -0.011     5.8256     69.789     34.761  34.379432     0.7119      9.271   296.3425 1.7217e+03     1.3614     -0.156     -0.226    24.4195   997.2108 0.0000e+00
     -0.174     -0.011     5.8346     69.900     34.754  34.373691     0.6982      9.262   296.3522 1.6340e+03     1.3183     -0.174     -0.252    24.4189   997.2109 0.0000e+00
     -0.182     -0.010     5.8427     69.994     34.784  34.402329     0.6907      9.254   296.5221 1.4901e+03     1.3099     -0.180     -0.262    24.4283   997.2085 0.0000e+00
     -0.183     -0.007     5.8485     70.056     34.794  34.408365     0.6904      9.247   296.4173 1.2889e+03     1.3592     -0.178     -0.258    24.4410   997.2053 0.0000e+00
     -0.182     -0.000     5.8540     70.108     34.520  34.129335     0.7109      9.239   296.1182 9.9622e+02     1.4222     -0.180     -0.260    24.4467   997.2038 0.0000e+00
     -0.181      0.007     5.8681     70.203     33.925  33.503682     0.7307      9.228   295.9163 7.0451e+02     1.4166     -0.177     -0.257    24.4491   997.2032 0.0000e+00
     -0.178      0.011     5.9327     70.761     33.524  32.999524     0.7217      9.213   295.8695 4.9260e+02     1.3571     -0.174     -0.253    24.4462   997.2040 0.0000e+00
     -0.174      0.012     6.1496     73.009     33.544  32.856595     0.6806      9.200   295.4660 3.6832e+02     1.3903     -0.172     -0.251    24.4393   997.2057 0.0000e+00
     -0.167      0.012     6.5771     77.776     33.687  32.854140     0.6416      9.189   294.8228 3.5395e+02     1.4910     -0.165     -0.239    24.4359   997.2065 0.0000e+00
     -0.162      0.009     7.1276     84.096     33.761  32.842703     0.6398      9.177   294.7177 5.0532e+02     1.5264     -0.156     -0.226    24.4181   997.2108 0.0000e+00
     -0.161      0.002     7.6639     90.329     33.804  32.845121     0.6504      9.170   294.8836 8.1255e+02     1.5225     -0.158     -0.229    24.2546   997.2514 0.0000e+00
     -0.162     -0.010     8.1024     95.447     33.863  32.883314     0.6481      9.170   294.9364 1.1672e+03     1.4768     -0.161     -0.234    23.9497   997.3269 0.0000e+00
     -0.161     -0.020     8.4026     98.949     33.918  32.923700     0.6378      9.169   295.1843 1.4966e+03     1.4001     -0.157     -0.228    23.7200   997.3833 0.0000e+00
     -0.165     -0.025     8.5532    100.700     33.957  32.952644     0.6218      9.162   295.2131 1.6973e+03     1.3482     -0.157     -0.227    23.6124   997.4095 0.0000e+00
     -0.179     -0.022     8.5561    100.738     33.982  32.979409     0.6107      9.148   294.7686 1.7524e+03     1.3091     -0.173     -0.252    23.5667   997.4205 0.0000e+00
     -0.199     -0.015     8.4217     99.195     33.982  32.993484     0.6333      9.134   294.4558 1.7612e+03     1.2876     -0.200     -0.290    23.5449   997.4258 0.0000e+00
     -0.207     -0.005     8.2070     96.718     33.964  32.995915     0.6697      9.120   294.2704 1.7602e+03     1.2851     -0.209     -0.304    23.5254   997.4304 0.0000e+00
     -0.200      0.005     7.9963     94.277     33.962  33.008837     0.6781      9.107   294.3342 1.7574e+03     1.3121     -0.197     -0.286    23.5114   997.4339 0.0000e+00
     -0.186      0.012     7.8308     92.358     33.964  33.022817     0.6822      9.098   294.6246 1.7545e+03     1.3516     -0.182     -0.264    23.5087   997.4346 0.0000e+00
     -0.176      0.010     7.7075     90.937     33.966  33.038044     0.6758      9.096   294.4261 1.7488e+03     1.4012     -0.172     -0.249    23.5367   997.4279 0.0000e+00
     -0.170     -0.003     7.6120     89.842     33.981  33.066048     0.6359      9.098   293.9998 1.7543e+03     1.4860     -0.165     -0.239    23.5723   997.4192 0.0000e+00
     -0.170     -0.023     7.5271     88.864     34.014  33.107587     0.6076      9.099   293.9437 1.7594e+03     1.5576     -0.162     -0.236    23.5922   997.4144 0.0000e+00
     -0.180     -0.041     7.4409     87.859     34.127  33.222990     0.6113      9.099   294.1786 1.7500e+03     1.5791     -0.172     -0.250    23.6091   997.4103 0.0000e+00
     -0.201     -0.051     7.3545     86.845     34.484  33.572927     0.6198      9.096   294.4302 1.7155e+03     1.5814     -0.196     -0.283    23.6298   997.4051 0.0000e+00
     -0.225     -0.052     7.2728     85.898     35.280  34.355895     0.6235      9.090   294.5766 1.4324e+03     1.5530     -0.223     -0.323    23.6491   997.4004 0.0000e+00
     -0.245     -0.045     7.1972     85.037     36.523  35.581741     0.6215      9.080   294.7446 1.1179e+03     1.4976     -0.244     -0.354    23.6649   997.3965 0.0000e+00
     -0.256     -0.031     7.1363     84.362     37.927  36.970354     0.6211      9.064   294.8266 1.3013e+03     1.5022     -0.253     -0.368    23.6724   997.3946 0.0000e+00
     -0.258     -0.018     7.1072     84.075     39.157  38.197397     0.6278      9.052   294.5356 1.6319e+03     1.5432     -0.255     -0.370    23.6694   997.3954 0.0000e+00
     -0.254     -0.013     7.1212     84.304     40.719  39.754094     0.6245      9.045   294.1521 1.7277e+03     1.5668     -0.251     -0.364    23.6805   997.3929 0.0000e+00
     -0.246     -0.015     7.1756     85.002     45.216  44.175358     0.6154      9.039   293.9751 1.7293e+03     1.6243     -0.240     -0.347    23.7047   997.3875 0.0000e+00
     -0.245     -0.022     7.2574     86.039     52.432  51.269098     0.6129      9.032   293.8573 1.7179e+03     2.4021     -0.233     -0.338    23.7276   997.3824 0.0000e+00
     -0.256     -0.031     7.3562     87.344     56.901  55.728417     0.6129      9.025   293.7599 1.6898e+03    11.3970     -0.247     -0.358    23.7648   997.3738 0.0000e+00
     -0.275     -0.037     7.4760     88.963     57.284  56.236283     0.6408      9.020   293.8304 1.3888e+03   110.2821     -0.273     -0.396    23.8130   997.3619 0.0000e+00
     -0.292     -0.037     7.6199     90.879     56.465  55.567878     0.6991      9.014   294.1078 1.1139e+03   291.5334     -0.289     -0.419    23.8413   997.3561 0.0000e+00
     -0.303     -0.032     7.7626     92.766     55.075  54.317983     0.7361      9.005   294.2740 1.4006e+03   390.7834     -0.298     -0.432    23.8619   997.3545 0.0000e+00
     -0.308     -0.023     7.8633     94.132     53.640  53.003950     0.8031      8.994   294.2056 1.7126e+03   404.1528     -0.303     -0.441    23.9464   997.3352 0.0000e+00
     -0.308     -0.013     7.8890     94.577     53.313  52.766709     1.5863      8.983   294.2267 1.7422e+03   452.9849     -0.303     -0.439    24.0831   997.3009 0.0000e+00
     -0.308     -0.007     7.8297     93.977     53.966  53.482479     3.0358      8.973   294.4442 1.7450e+03   541.1421     -0.302     -0.437    24.2068   997.2702 0.0000e+00
     -0.308     -0.004     7.7012     92.521     54.277  53.844815     3.8330      8.964   294.6841 1.7488e+03   589.1041     -0.302     -0.439    24.3131   997.2431 0.0000e+00
     -0.309     -0.004     7.5267     90.482     53.727  53.336224     3.9072      8.959   294.7179 1.7503e+03   591.9717     -0.303     -0.440    24.4080   997.2187 0.0000e+00
     -0.310     -0.004     7.3314     88.164     53.292  52.923459     3.8642      8.957   294.5088 1.7457e+03   575.9773     -0.303     -0.440    24.4872   997.1988 0.0000e+00
     -0.312     -0.003     7.1447     85.929     53.346  52.983330     3.7717      8.955   294.3067 1.7396e+03   546.0103     -0.306     -0.444    24.5497   997.1834 0.0000e+00
     -0.316     -0.002     6.9885     84.052     53.662  53.297855     3.7174      8.950   294.2535 1.7423e+03   529.6737     -0.310     -0.449    24.6013   997.1707 0.0000e+00
     -0.316     -0.002     6.8730     82.660     54.174  53.804219     3.7018      8.943   294.4677 1.7503e+03   528.1227     -0.310     -0.450    24.6365   997.1613 0.0000e+00
     -0.313     -0.001     6.7993     81.769     54.526  54.150714     3.6698      8.938   294.8308 1.7460e+03   526.8317     -0.307     -0.445    24.6518   997.1573 0.0000e+00
     -0.312      0.000     6.7625     81.317     54.374  53.993343     3.3740      8.933   294.6863 1.6925e+03   514.1960     -0.304     -0.441    24.6564   997.1563 0.0000e+00
     -0.313      0.002     6.7523     81.182     53.876  53.489616     2.8301      8.930   294.0977 1.3617e+03   491.0971     -0.306     -0.442    24.6556   997.1565 0.0000e+00
     -0.316      0.004     6.7553     81.210     53.468  53.078739     2.5299      8.926   294.0812 1.0614e+03   477.9663     -0.311     -0.451    24.6529   997.1575 0.0000e+00
     -0.316      0.006     6.7635     81.306     53.289  52.900492     2.4750      8.920   294.6588 1.3271e+03   470.1682     -0.312     -0.453    24.6516   997.1579 0.0000e+00
     -0.313      0.008     6.7740     81.432     53.248  52.859019     2.1668      8.913   294.7148 1.6702e+03   396.8438     -0.307     -0.445    24.6453   997.1594 0.0000e+00
     -0.308      0.011     6.7837     81.545     53.286  52.894904     1.6116      8.906   294.2421 1.7427e+03   262.6482     -0.302     -0.438    24.6337   997.1621 0.0000e+00
     -0.303      0.012     6.7922     81.644     53.411  53.016750     1.3108      8.899   294.1915 1.7570e+03   189.1188     -0.296     -0.430    24.6283   997.1634 0.0000e+00
     -0.300      0.012     6.7994     81.728     53.586  53.188822     1.2699      8.892   294.6191 1.7630e+03   178.3258     -0.293     -0.425    24.6290   997.1632 0.0000e+00
     -0.298      0.011     6.8039     81.782     53.659  53.260258     1.1429      8.885   295.0238 1.7650e+03   132.8725     -0.292     -0.424    24.6289   997.1633 0.0000e+00
     -0.295      0.008     6.8068     81.816     53.645  53.245232     0.9201      8.877   295.2135 1.7570e+03    50.7410     -0.290     -0.420    24.6270   997.1638 0.0000e+00
     -0.293      0.003     6.8067     81.815     53.597  53.197713     0.8041      8.870   295.2775 1.7136e+03     5.9964     -0.287     -0.415    24.6246   997.1644 0.0000e+00
     -0.291      0.000     6.8021     81.759     53.530  53.130386     0.7977      8.868   295.1099 1.5628e+03     1.9475     -0.285     -0.413    24.6230   997.1649 0.0000e+00
     -0.291     -0.002     6.8012     81.746     53.595  53.193468     0.7740      8.867   294.6489 1.2776e+03     1.5891     -0.285     -0.414    24.6224   997.1651 0.0000e+00
     -0.293     -0.004     6.8074     81.818     53.729  53.325185     0.7257      8.863   294.3505 9.2076e+02     1.5656     -0.287     -0.417    24.6221   997.1651 0.0000e+00
     -0.298     -0.004     6.8081     81.826     53.729  53.325426     0.6986      8.856   294.4274 6.0715e+02     1.5645     -0.293     -0.425    24.6217   997.1652 0.0000e+00
     -0.300     -0.003     6.8030     81.764     53.664  53.259910     0.6980      8.848   294.2014 4.2430e+02     1.5429     -0.296     -0.430    24.6211   997.1652 0.0000e+00
     -0.299     -0.001     6.7993     81.719     53.636  53.231811     0.6833      8.841   293.4250 3.4885e+02     1.4682     -0.294     -0.425    24.6198   997.1656 0.0000e+00
     -0.298      0.001     6.7974     81.695     53.580  53.176259     0.6513      8.835   292.9553 3.7081e+02     1.3492     -0.292     -0.424    24.6188   997.1660 0.0000e+00
     -0.297      0.003     6.7965     81.684     53.500  53.096421     0.6320      8.830   292.9965 4.7874e+02     1.2850     -0.291     -0.422    24.6183   997.1661 0.0000e+00
     -0.295      0.005     6.7957     81.674     53.624  53.219363     0.6327      8.828   292.8049 6.7168e+02     1.3139     -0.290     -0.420    24.6179   997.1662 0.0000e+00
     -0.295      0.007     6.7939     81.653     53.990  53.582816     0.6587      8.827   292.1879 9.4280e+02     1.3713     -0.289     -0.420    24.6173   997.1663 0.0000e+00
     -0.294      0.010     6.7920     81.631     54.215  53.806445     0.7036      8.825   291.8173 1.2180e+03     1.3887     -0.289     -0.419    24.6169   997.1664 0.0000e+00
     -0.292      0.013     6.7926     81.640     54.044  53.636324     0.7245      8.823   291.9372 1.4514e+03     1.3602     -0.286     -0.417    24.6171   997.1663 0.0000e+00
     -0.288      0.017     6.7951     81.670     53.645  53.241089     0.7212      8.820   292.2617 1.6040e+03     1.3548     -0.283     -0.411    24.6169   997.1664 0.0000e+00
     -0.282      0.021     6.7982     81.707     53.303  52.902726     0.7251      8.816   292.5563 1.6897e+03     1.3560     -0.278     -0.403    24.6169   997.1666 0.0000e+00
     -0.275      0.024     6.8015     81.745     53.121  52.721421     0.7622      8.812   292.6606 1.7326e+03     1.3743     -0.270     -0.393    24.6173   997.1666 0.0000e+00
     -0.268      0.025     6.8059     81.787     53.045  52.637022     0.8227      8.807   292.6618 1.7463e+03     1.4782     -0.263     -0.382    24.6177   997.1664 0.0000e+00
     -0.262      0.025     6.8159     81.851     52.770  52.326914     0.8497      8.802   292.8288 1.7533e+03     1.5313     -0.257     -0.372    24.6182   997.1662 0.0000e+00
     -0.255      0.023     6.8331     81.917     51.916  51.385680     0.8457      8.795   293.4762 1.7540e+03     1.5239     -0.250     -0.363    24.6185   997.1661 0.0000e+00
     -0.249      0.018     6.8551     81.972     50.484  49.831595     0.8440      8.789   293.9496 1.7546e+03     1.5532     -0.244     -0.354    24.6183   997.1660 0.0000e+00
     -0.243      0.010     6.8750     81.999     48.459  47.700443     0.8469      8.785   293.3904 1.7561e+03     1.5574     -0.238     -0.346    24.6172   997.1664 0.0000e+00
     -0.238     -0.001     6.8902     81.999     46.397  45.559793     0.8553      8.781   292.4789 1.7582e+03     1.5422     -0.234     -0.339    24.5976   997.1713 0.0000e+00
     -0.237     -0.014     6.9044     82.018     45.955  45.032448     0.8585      8.777   291.9644 1.7568e+03     1.5327     -0.230     -0.334    24.5015   997.1952 0.0000e+00
     -0.243     -0.026     6.9143     82.030     47.943  46.912507     0.8501      8.772   292.0735 1.7528e+03     1.4762     -0.236     -0.342    24.3388   997.2356 0.0000e+00
     -0.256     -0.036     6.9173     81.993     51.605  50.446547     0.8408      8.767   292.5935 1.7499e+03     1.3837     -0.252     -0.365    24.1981   997.2700 0.0000e+00
     -0.271     -0.043     6.9128     81.924     54.833  53.592704     0.8410      8.763   292.8301 1.7484e+03     1.3969     -0.267     -0.387    24.0868   997.2965 0.0000e+00
     -0.284     -0.046     6.8949     81.836     55.956  54.781057     0.8533      8.758   292.6971 1.7481e+03     2.1273     -0.279     -0.405    23.9761   997.3236 0.0000e+00
     -0.296     -0.044     6.8666     81.746     56.093  55.096043     0.9372      8.753   292.6201 1.7480e+03     9.9857     -0.291     -0.422    23.9140   997.3395 0.0000e+00
     -0.308     -0.040     6.8414     81.688     56.702  55.876682     1.0747      8.749   292.8465 1.7478e+03    24.3132     -0.304     -0.440    23.8708   997.3514 0.0000e+00
     -0.318     -0.035     6.8241     81.652     57.688  56.977263     1.1293      8.745   293.1109 1.7477e+03    32.0467     -0.314     -0.454    23.8218   997.3648 0.0000e+00
     -0.326     -0.029     6.8124     81.618     58.561  57.920039     1.1114      8.740   293.2358 1.7468e+03    32.2762     -0.321     -0.464    23.9080   997.3437 0.0000e+00
     -0.332     -0.022     6.8074     81.623     58.591  57.999341     0.8934      8.736   293.1522 1.7453e+03    27.1869     -0.326     -0.473    24.1130   997.2930 0.0000e+00
     -0.338     -0.014     6.8074     81.663     57.021  56.474726     0.4701      8.734   292.8752 1.7446e+03    17.7040     -0.332     -0.482    24.2861   997.2503 0.0000e+00
     -0.342     -0.006     6.8087     81.700     54.671  54.162517     0.2330      8.731   292.8108 1.7436e+03    12.5284     -0.336     -0.487    24.3919   997.2241 0.0000e+00
     -0.342      0.001     6.8112     81.737     53.212  52.723404     0.2114      8.729   292.8906 1.7420e+03    12.3575     -0.336     -0.488    24.4546   997.2088 0.0000e+00
     -0.339      0.006     6.8145     81.773     53.032  52.542459     0.2354      8.726   292.5493 1.7407e+03    16.0310     -0.333     -0.483    24.4944   997.1990 0.0000e+00
     -0.336      0.011     6.8185     81.802     53.241  52.736976     0.5144      8.723   291.9528 1.7390e+03    57.1736     -0.330     -0.478    24.5193   997.1920 0.0000e+00
     -0.331      0.014     6.8250     81.826     52.561  52.026176     1.0271      8.720   291.9598 1.7367e+03   132.6987     -0.325     -0.471    24.5334   997.1874 0.0000e+00
     -0.326      0.015     6.8360     81.841     51.602  50.998843     1.3104      8.715   292.4618 1.7356e+03   175.2087     -0.320     -0.464    24.5376   997.1860 0.0000e+00
     -0.322      0.014     6.8501     81.853     52.151  51.431411     1.3557      8.711   292.6885 1.7367e+03   194.5395     -0.315     -0.458    24.5355   997.1865 0.0000e+00
     -0.318      0.013     6.8630     81.859     53.396  52.555705     1.4976      8.709   292.5499 1.7387e+03   366.6228     -0.312     -0.453    24.5270   997.1890 0.0000e+00
     -0.315      0.012     6.8730     81.857     53.189  52.269540     1.7417      8.706   292.3352 1.7399e+03   681.3760     -0.308     -0.448    24.5024   997.1950 0.0000e+00
     -0.313      0.011     6.8815     81.857     51.600  50.639135     1.8798      8.703   292.2429 1.7416e+03   851.6011     -0.306     -0.444    24.4215   997.2145 0.0000e+00
     -0.311      0.010     6.8895     81.862     50.031  49.039781     1.8756      8.700   292.2944 1.7439e+03   850.2246     -0.305     -0.442    24.2985   997.2456 0.0000e+00
     -0.309      0.009     6.8979     81.874     49.011  47.984869     1.6394      8.697   292.4413 1.7449e+03   663.9139     -0.303     -0.440    24.2020   997.2705 0.0000e+00
     -0.306      0.009     6.9062     81.899     48.538  47.474256     1.2085      8.693   292.5563 1.7437e+03   319.7720     -0.299     -0.435    24.1250   997.2895 0.0000e+00
     -0.304      0.008     6.9119     81.919     48.337  47.248015     0.9750      8.690   292.6525 1.7418e+03   131.7931     -0.297     -0.430    24.0581   997.3052 0.0000e+00
     -0.302      0.008     6.9134     81.919     48.058  46.964021     0.9566      8.687   292.8295 1.7403e+03   112.2432     -0.296     -0.429    24.0039   997.3182 0.0000e+00
     -0.300      0.008     6.9139     81.916     47.736  46.644219     0.9173      8.685   292.8902 1.7393e+03    83.0022     -0.294     -0.427    23.9446   997.3325 0.0000e+00
     -0.298      0.008     6.9155     81.925     47.589  46.493019     0.8374      8.683   292.6975 1.7384e+03    32.0638     -0.292     -0.424    23.8909   997.3455 0.0000e+00
     -0.296      0.010     6.9165     81.922     48.094  46.977479     0.7886      8.681   292.3932 1.7359e+03     4.3537     -0.290     -0.422    23.8597   997.3532 0.0000e+00
     -0.295      0.014     6.9160     81.907     48.944  47.802318     0.7782      8.677   292.0506 1.7248e+03     1.8159     -0.289     -0.420    23.8535   997.3545 0.0000e+00
     -0.293      0.020     6.9158     81.909     48.903  47.765724     0.7811      8.670   291.7383 1.6912e+03     1.5769     -0.288     -0.418    23.8522   997.3549 0.0000e+00
     -0.288      0.026     6.9172     81.935     47.053  45.963523     0.7889      8.659   291.3708 1.6244e+03     1.5619     -0.284     -0.412    23.8443   997.3567 0.0000e+00
     -0.280      0.036     6.9217     81.982     43.793  42.776305     0.7948      8.641   290.7908 1.5297e+03     1.5363     -0.275     -0.399    23.8322   997.3599 0.0000e+00
     -0.269      0.048     6.9283     82.029     41.123  40.151857     0.8007      8.617   289.9742 1.3827e+03     1.5292     -0.265     -0.384    23.8242   997.3623 0.0000e+00
     -0.257      0.060     6.9362     82.069     39.638  38.675469     0.8430      8.597   288.8964 1.1294e+03     1.6072     -0.252     -0.365    23.8301   997.3610 0.0000e+00
     -0.242      0.071     6.9486     82.144     38.203  37.240893     0.9235      8.583   287.9969 8.2992e+02     1.7247     -0.240     -0.348    23.8404   997.3580 0.0000e+00
     -0.221      0.080     6.9631     82.237     36.849  35.882482     0.9679      8.576   287.3588 6.0512e+02     1.7703     -0.220     -0.319    23.8398   997.3568 0.0000e+00
     -0.195      0.088     6.9775     82.327     36.056  35.072552     0.9719      8.571   286.5154 4.5984e+02     1.7651     -0.188     -0.272    23.8172   997.3615 0.0000e+00
     -0.170      0.096     7.0173     82.717     35.628  34.620113     0.9722      8.566   285.7148 3.5938e+02     1.7605     -0.164     -0.240    23.7837   997.3697 0.0000e+00
     -0.148      0.102     7.1103     83.742     35.315  34.283518     0.9713      8.565   285.1644 3.1046e+02     1.7802     -0.145     -0.212    23.7358   997.3810 0.0000e+00
     -0.124      0.105     7.2347     85.147     35.035  33.985650     0.9708      8.565   284.6794 3.1917e+02     1.8070     -0.123     -0.178    23.6801   997.3941 0.0000e+00
     -0.096      0.105     7.3472     86.424     34.810  33.747554     0.9655      8.563   284.4099 3.7225e+02     1.7905     -0.097     -0.139    23.6311   997.4060 0.0000e+00
     -0.062      0.102     7.4361     87.434     34.635  33.562467     0.9592      8.556   284.4874 4.5531e+02     1.7441     -0.059     -0.086    23.5788   997.4187 0.0000e+00
     -0.032      0.095     7.5240     88.436     34.479  33.397802     0.9381      8.546   284.9287 5.5732e+02     1.6715     -0.029     -0.041    23.5311   997.4303 0.0000e+00
     -0.008      0.083     7.6265     89.617     34.367  33.279682     0.8929      8.535   285.2714 5.4880e+02     1.6010     -0.007     -0.012    23.4933   997.4394 0.0000e+00
      0.013      0.066     7.7360     90.887     34.305  33.213131     0.8639      8.529   285.1896 3.8425e+02     1.5801      0.015      0.020    23.4664   997.4460 0.0000e+00
      0.028      0.048     7.8441     92.146     34.259  33.164295     0.8648      8.529   285.0572 2.6435e+02     1.5822      0.030      0.044    23.4458   997.4509 0.0000e+00
      0.036      0.033     7.9479     93.358     34.164  33.069969     0.8774      8.535   284.6172 2.4708e+02     1.5605      0.037      0.054    23.4248   997.4560 0.0000e+00
      0.038      0.025     8.0449     94.491     34.054  32.961098     0.8949      8.541   283.9132 2.5663e+02     1.5470      0.038      0.055    23.4101   997.4595 0.0000e+00
      0.038      0.022     8.1257     95.437     34.019  32.926779     0.9109      8.542   283.8592 2.6924e+02     1.5500      0.037      0.053    23.4019   997.4615 0.0000e+00
      0.040      0.022     8.1798     96.071     34.002  32.908870     0.9242      8.540   284.3941 2.6692e+02     1.5321      0.037      0.053    23.3970   997.4626 0.0000e+00
      0.046      0.023     8.1986     96.288     33.965  32.871479     0.9341      8.539   284.7879 2.5765e+02     1.5270      0.042      0.061    23.3929   997.4637 0.0000e+00
      0.057      0.023     8.1784     96.048     33.949  32.855444     0.9268      8.539   285.0078 3.3894e+02     1.5206      0.056      0.081    23.3890   997.4646 0.0000e+00
      0.069      0.022     8.1279     95.452     33.937  32.841923     0.9141      8.540   285.0734 5.9269e+02     1.5208      0.069      0.100    23.3884   997.4648 0.0000e+00
      0.075      0.017     8.0622     94.671     33.933  32.834917     0.9190      8.541   284.8920 7.9470e+02     1.5620      0.075      0.108    23.3879   997.4649 0.0000e+00
      0.076      0.010     7.9949     93.870     34.002  32.897646     0.9504      8.541   285.1388 8.1037e+02     1.5928      0.075      0.109    23.3836   997.4659 0.0000e+00
      0.075      0.003     7.9311     93.119     34.204  33.092685     0.9999      8.541   285.9922 8.4954e+02     1.5984      0.074      0.108    23.3827   997.4661 0.0000e+00
      0.074     -0.002     7.8684     92.386     34.472  33.352733     1.0229      8.541   286.6921 8.6889e+02     1.5971      0.073      0.105    23.3834   997.4659 0.0000e+00
      0.073     -0.005     7.8029     91.614     34.629  33.503390     1.0208      8.541   286.9757 7.4326e+02     1.6101      0.072      0.104    23.3764   997.4676 0.0000e+00
      0.071     -0.005     7.7315     90.768     34.582  33.454642     1.0174      8.541   287.0129 6.3560e+02     1.5906      0.070      0.101    23.3679   997.4696 0.0000e+00
      0.069     -0.004     7.6561     89.879     34.394  33.271027     0.9904      8.540   287.0562 6.2932e+02     1.5254      0.067      0.097    23.3680   997.4697 0.0000e+00
      0.068     -0.002     7.5804     88.993     34.240  33.123709     0.9373      8.539   287.0684 6.4490e+02     1.5100      0.066      0.096    23.3731   997.4686 0.0000e+00
      0.068     -0.001     7.5046     88.110     34.181  33.069597     0.9039      8.537   287.0742 5.6140e+02     1.5362      0.066      0.095    23.3704   997.4693 0.0000e+00
      0.068      0.001     7.4287     87.226     34.169  33.061000     0.9074      8.537   287.3851 4.1211e+02     1.5467      0.067      0.097    23.3633   997.4710 0.0000e+00
      0.069      0.002     7.3540     86.356     34.255  33.146686     0.9281      8.536   287.9021 3.7794e+02     1.5387      0.068      0.099    23.3610   997.4715 0.0000e+00
      0.070      0.002     7.2800     85.492     34.391  33.280630     0.9458      8.534   288.4209 4.2123e+02     1.5386      0.069      0.099    23.3630   997.4709 0.0000e+00
      0.070      0.002     7.2030     84.590     34.393  33.284354     0.9566      8.533   288.6675 4.5188e+02     1.5781      0.069      0.100    23.3677   997.4697 0.0000e+00
      0.070      0.002     7.1200     83.620     34.296  33.191710     0.9722      8.532   288.2170 4.4086e+02     1.6221      0.069      0.100    23.3732   997.4685 0.0000e+00
      0.071      0.002     7.0327     82.602     34.277  33.175860     0.9963      8.530   287.5335 3.6194e+02     1.6454      0.069      0.100    23.3773   997.4675 0.0000e+00
      0.071      0.002     6.9483     81.618     34.318  33.219646     1.0218      8.529   287.3721 2.8847e+02     1.6295      0.070      0.101    23.3808   997.4667 0.0000e+00
      0.071      0.003     6.8697     80.701     34.309  33.213441     1.0302      8.529   287.2983 2.5000e+02     1.5616      0.070      0.101    23.3827   997.4663 0.0000e+00
      0.072      0.006     6.7951     79.829     34.322  33.227766     1.0281      8.528   287.3292 2.3028e+02     1.5126      0.070      0.102    23.3835   997.4660 0.0000e+00
      0.073      0.010     6.7253     79.013     34.425  33.329379     1.0313      8.527   287.7452 2.3966e+02     1.4958      0.071      0.102    23.3881   997.4649 0.0000e+00
      0.074      0.012     6.6607     78.258     34.458  33.363179     1.0337      8.524   287.5104 4.0295e+02     1.4896      0.072      0.104    23.3948   997.4634 0.0000e+00
      0.079      0.013     6.6016     77.569     34.344  33.255679     1.0313      8.520   286.5552 6.9035e+02     1.5035      0.075      0.110    23.3986   997.4624 0.0000e+00
      0.086      0.012     6.5489     76.958     34.254  33.171916     1.0278      8.518   286.0902 8.5624e+02     1.5331      0.084      0.122    23.4006   997.4620 0.0000e+00
      0.092      0.009     6.5016     76.409     34.319  33.238887     0.9830      8.516   286.1903 9.2131e+02     1.5848      0.092      0.133    23.4040   997.4613 0.0000e+00
      0.095      0.005     6.4601     75.931     34.382  33.303885     0.8974      8.513   286.5616 9.4821e+02     1.6047      0.095      0.137    23.4059   997.4608 0.0000e+00
      0.092      0.002     6.4260     75.537     34.333  33.259725     0.8499      8.510   287.1387 9.3064e+02     1.5436      0.091      0.131    23.4091   997.4600 0.0000e+00
      0.088      0.001     6.3959     75.188     34.281  33.212645     0.8427      8.506   287.2306 9.4137e+02     1.5014      0.086      0.124    23.4150   997.4586 0.0000e+00
      0.086      0.003     6.3659     74.840     34.243  33.178880     0.8457      8.503   286.7256 9.8475e+02     1.5201      0.085      0.123    23.4207   997.4572 0.0000e+00
      0.087      0.008     6.3369     74.503     34.297  33.232259     0.8522      8.502   286.3678 1.0267e+03     1.5403      0.085      0.124    23.4280   997.4555 0.0000e+00
      0.090      0.014     6.3098     74.185     34.419  33.350347     0.8513      8.500   286.2596 1.0349e+03     1.5497      0.089      0.130    23.4318   997.4545 0.0000e+00
      0.095      0.020     6.2875     73.925     34.404  33.337426     0.8438      8.496   286.1921 1.0410e+03     1.5350      0.093      0.134    23.4353   997.4537 0.0000e+00
      0.102      0.023     6.2705     73.733     34.327  33.266426     0.8472      8.494   286.3259 1.0524e+03     1.5262      0.098      0.142    23.4395   997.4527 0.0000e+00
      0.112      0.025     6.2561     73.572     34.310  33.253445     0.8748      8.492   286.8459 1.0333e+03     1.5418      0.112      0.162    23.4424   997.4520 0.0000e+00
      0.119      0.026     6.2465     73.457     34.301  33.243936     0.9011      8.490   287.4029 1.0572e+03     1.5602      0.119      0.173    23.4423   997.4521 0.0000e+00
      0.124      0.029     6.2398     73.372     34.274  33.214922     0.9046      8.489   287.3810 1.0669e+03     1.5847      0.122      0.177    23.4407   997.4525 0.0000e+00
      0.129      0.032     6.2304     73.256     34.281  33.219939     0.8999      8.488   286.9260 1.0359e+03     1.5759      0.127      0.184    23.4503   997.4502 0.0000e+00
      0.135      0.037     6.2173     73.100     34.305  33.241130     0.8708      8.487   286.4606 1.0537e+03     1.5518      0.130      0.190    23.4585   997.4482 0.0000e+00
      0.145      0.042     6.2041     72.944     34.281  33.217300     0.8129      8.485   286.2284 1.0352e+03     1.5557      0.140      0.203    23.4544   997.4493 0.0000e+00
      0.160      0.046     6.1941     72.827     34.248  33.185646     0.7802      8.483   286.7004 1.0138e+03     1.5573      0.156      0.226    23.4484   997.4507 0.0000e+00
      0.175      0.050     6.1898     72.777     34.237  33.175720     0.7795      8.481   287.6929 1.0414e+03     1.5385      0.173      0.251    23.4455   997.4516 0.0000e+00
      0.189      0.051     6.1913     72.795     34.222  33.160752     0.7950      8.479   288.2474 9.9485e+02     1.5247      0.187      0.271    23.4441   997.4520 0.0000e+00
      0.200      0.051     6.1973     72.865     34.192  33.131588     0.8294      8.475   288.1564 9.2077e+02     1.5543      0.197      0.285    23.4421   997.4525 0.0000e+00
      0.211      0.050     6.2076     72.987     34.200  33.140404     0.8572      8.469   287.9701 9.3925e+02     1.5691      0.207      0.300    23.4426   997.4524 0.0000e+00
      0.224      0.049     6.2202     73.137     34.199  33.140433     0.8619      8.459   287.9735 9.4350e+02     1.5399      0.220      0.320    23.4447   997.4520 0.0000e+00
      0.238      0.049     6.2325     73.282     34.125  33.068463     0.8691      8.449   288.1980 9.0237e+02     1.5294      0.235      0.339    23.4436   997.4523 0.0000e+00
      0.252      0.050     6.2452     73.432     34.152  33.095228     0.8916      8.443   288.7053 9.1617e+02     1.5396      0.246      0.357    23.4434   997.4523 0.0000e+00
      0.264      0.052     6.2662     73.678     34.272  33.210198     0.9093      8.439   289.1173 9.5722e+02     1.5648      0.260      0.376    23.4450   997.4520 0.0000e+00
      0.274      0.053     6.3012     74.089     34.251  33.189313     0.9180      8.436   289.2211 1.0368e+03     1.6047      0.269      0.390    23.4463   997.4518 0.0000e+00
      0.287      0.053     6.3449     74.610     34.151  33.096562     0.9195      8.435   289.1863 1.0694e+03     1.6294      0.279      0.404    23.4456   997.4520 0.0000e+00
      0.304      0.054     6.3964     75.224     34.154  33.104145     0.9185      8.432   289.1262 9.7640e+02     1.6343      0.299      0.432    23.4482   997.4515 0.0000e+00
      0.320      0.055     6.4655     76.037     34.206  33.154083     0.9232      8.427   289.1823 8.7686e+02     1.6309      0.316      0.459    23.4460   997.4521 0.0000e+00
      0.332      0.055     6.5561     77.099     34.182  33.129200     0.9246      8.422   289.3489 8.3248e+02     1.6217      0.326      0.473    23.4411   997.4534 0.0000e+00
      0.345      0.053     6.6702     78.440     34.174  33.120591     0.9172      8.415   289.5057 8.4720e+02     1.5886      0.337      0.488    23.4519   997.4507 0.0000e+00
      0.360      0.049     6.8131     80.117     34.234  33.176921     0.9296      8.404   289.5300 9.0626e+02     1.5574      0.354      0.513    23.4604   997.4488 0.0000e+00
      0.373      0.043     6.9699     81.952     34.236  33.175671     0.9705      8.396   289.5569 9.2937e+02     1.5727      0.367      0.532    23.4582   997.4494 0.0000e+00
      0.384      0.038     7.1094     83.588     34.166  33.105465     0.9865      8.395   289.6581 8.8655e+02     1.6089      0.377      0.545    23.4530   997.4507 0.0000e+00
      0.394      0.036     7.2125     84.798     34.151  33.089598     0.9765      8.397   289.7212 8.6864e+02     1.6345      0.389      0.564    23.4533   997.4506 0.0000e+00
      0.400      0.036     7.2732     85.514     34.237  33.174212     0.9877      8.394   289.7177 8.8396e+02     1.6200      0.394      0.572    23.4533   997.4507 0.0000e+00
      0.403      0.040     7.2916     85.742     34.234  33.176602     1.0178      8.386   289.6163 8.6831e+02     1.5647      0.393      0.571    23.4462   997.4523 0.0000e+00
      0.410      0.045     7.2768     85.588     34.100  33.055031     1.0373      8.383   289.5273 7.6653e+02     1.5231      0.398      0.577    23.4426   997.4532 0.0000e+00
      0.425      0.054     7.2440     85.217     34.075  33.037010     1.0405      8.387   289.5878 6.4018e+02     1.5108      0.415      0.603    23.4415   997.4536 0.0000e+00
      0.445      0.064     7.2165     84.893     34.125  33.085654     1.0660      8.391   289.8310 5.9466e+02     1.5141      0.440      0.638    23.4413   997.4538 0.0000e+00
      0.462      0.073     7.2106     84.821     34.112  33.072028     1.1112      8.392   290.2313 5.6556e+02     1.5302      0.453      0.656    23.4467   997.4525 0.0000e+00
      0.480      0.076     7.2190     84.920     34.102  33.062636     1.1278      8.390   290.5560 5.5925e+02     1.5091      0.467      0.678    23.4642   997.4483 0.0000e+00
      0.503      0.075     7.2301     85.050     34.074  33.035564     1.1364      8.388   290.7462 6.1295e+02     1.4879      0.495      0.718    23.4773   997.4453 0.0000e+00
      0.527      0.071     7.2424     85.189     34.038  32.998534     1.1547      8.390   290.8102 6.2151e+02     1.5031      0.519      0.753    23.4723   997.4466 0.0000e+00
      0.546      0.069     7.2538     85.317     34.038  32.995674     1.1583      8.392   290.5542 5.9526e+02     1.4964      0.538      0.780    23.4680   997.4477 0.0000e+00
      0.560      0.067     7.2588     85.369     34.047  33.000987     1.1546      8.394   290.3190 6.2642e+02     1.5050      0.551      0.798    23.4722   997.4468 0.0000e+00
      0.571      0.066     7.2518     85.281     34.113  33.062762     1.1527      8.397   290.6340 6.6327e+02     1.5421      0.558      0.809    23.4710   997.4471 0.0000e+00
      0.586      0.067     7.2323     85.045     34.163  33.107976     1.1521      8.398   291.2655 6.4018e+02     1.5520      0.574      0.833    23.4665   997.4483 0.0000e+00
      0.603      0.070     7.2049     84.725     34.092  33.039975     1.1819      8.398   291.6732 6.1663e+02     1.5257      0.590      0.856    23.4624   997.4493 0.0000e+00
      0.624      0.074     7.1789     84.419     34.053  33.002110     1.2355      8.396   291.7771 6.2080e+02     1.5201      0.611      0.885    23.4584   997.4504 0.0000e+00
      0.647      0.075     7.1683     84.278     34.089  33.030917     1.2629      8.392   291.8335 6.0958e+02     1.5821      0.638      0.925    23.4553   997.4513 0.0000e+00
      0.667      0.073     7.1935     84.557     34.073  33.007500     1.2614      8.391   291.8394 5.9346e+02     1.6200      0.655      0.950    23.4482   997.4531 0.0000e+00
      0.686      0.068     7.2667     85.411     34.040  32.972811     1.2447      8.391   291.7627 5.7992e+02     1.5846      0.671      0.973    23.4513   997.4524 0.0000e+00
      0.704      0.064     7.3688     86.606     34.062  32.992261     1.2259      8.389   291.9381 5.4696e+02     1.5806      0.694      1.006    23.4585   997.4507 0.0000e+00
      0.718      0.061     7.4639     87.714     34.063  32.988817     1.2159      8.385   292.2393 5.4028e+02     1.6037      0.706      1.024    23.4422   997.4547 0.0000e+00
      0.728      0.059     7.5246     88.419     34.007  32.931165     1.2187      8.382   292.3069 5.7671e+02     1.6019      0.712      1.033    23.4258   997.4587 0.0000e+00
      0.742      0.056     7.5431     88.635     34.006  32.929794     1.3034      8.381   292.3260 5.9671e+02     1.5922      0.726      1.053    23.4277   997.4582 0.0000e+00
      0.761      0.053     7.5290     88.461     34.053  32.972239     1.4506      8.381   292.1259 5.9420e+02     1.5845      0.748      1.084    23.4271   997.4585 0.0000e+00
      0.777      0.050     7.4947     88.045     34.022  32.936670     1.5168      8.381   291.6074 5.8717e+02     1.5744      0.764      1.107    23.4170   997.4611 0.0000e+00
      0.789      0.048     7.4524     87.540     33.968  32.880494     1.5052      8.382   291.3918 5.8521e+02     1.5351      0.774      1.122    23.4105   997.4626 0.0000e+00
      0.800      0.048     7.4138     87.078     34.021  32.927626     1.4574      8.383   291.5833 5.7005e+02     1.5026      0.786      1.140    23.4150   997.4616 0.0000e+00
      0.808      0.049     7.3853     86.737     34.097  32.998851     1.3804      8.383   291.9449 5.4065e+02     1.5101      0.793      1.150    23.4086   997.4632 0.0000e+00
      0.816      0.050     7.3731     86.603     34.073  32.980124     1.3375      8.382   292.3224 5.4261e+02     1.5261      0.797      1.156    23.3964   997.4662 0.0000e+00
      0.830      0.050     7.3828     86.732     34.040  32.955050     1.3286      8.381   292.0182 5.5756e+02     1.5330      0.811      1.176    23.3957   997.4663 0.0000e+00
      0.850      0.050     7.4049     86.992     34.034  32.949537     1.3252      8.380   291.1062 5.4318e+02     1.5605      0.835      1.212    23.3889   997.4681 0.0000e+00
      0.867      0.051     7.4186     87.142     34.002  32.913470     1.3304      8.379   290.6730 5.2548e+02     1.6292      0.854      1.239    23.3789   997.4707 0.0000e+00
      0.878      0.051     7.4083     87.008     33.993  32.899719     1.3404      8.378   290.7385 5.1553e+02     1.6423      0.862      1.250    23.3892   997.4682 0.0000e+00
      0.885      0.051     7.3694     86.544     34.007  32.910194     1.3424      8.377   291.1231 5.0630e+02     1.5562      0.867      1.257    23.4051   997.4643 0.0000e+00
      0.894      0.051     7.3084     85.823     34.013  32.913190     1.3371      8.376   291.7094 4.9889e+02     1.5055      0.874      1.267    23.4036   997.4648 0.0000e+00
      0.909      0.053     7.2361     84.966     34.039  32.935945     1.3540      8.373   291.6329 4.7932e+02     1.5525      0.891      1.291    23.3931   997.4673 0.0000e+00
      0.927      0.055     7.1592     84.055     34.039  32.931469     1.3906      8.368   291.0591 4.6917e+02     1.6015      0.910      1.320    23.3850   997.4694 0.0000e+00
      0.942      0.055     7.0841     83.167     33.966  32.859071     1.4068      8.363   290.7938 4.5644e+02     1.5730      0.923      1.340    23.3816   997.4703 0.0000e+00
      0.957      0.056     7.0201     82.405     33.933  32.822112     1.4022      8.362   290.9206 4.1996e+02     1.5028      0.938      1.361    23.3792   997.4709 0.0000e+00
      0.972      0.059     6.9782     81.877     33.994  32.865361     1.4128      8.362   291.2161 3.9476e+02     1.5070      0.956      1.387    23.3742   997.4722 0.0000e+00
      0.982      0.065     6.9681     81.702     34.028  32.874280     1.4490      8.361   291.3555 3.7868e+02     1.5583      0.964      1.398    23.3672   997.4740 0.0000e+00
      0.992      0.071     6.9949     81.977     33.973  32.802985     1.4759      8.361   291.4005 3.6019e+02     1.5663      0.968      1.402    23.3641   997.4747 0.0000e+00
      1.012      0.076     7.0567     82.678     33.944  32.764848     1.4860      8.362   291.5890 3.4884e+02     1.5705      0.987      1.433    23.3665   997.4742 0.0000e+00
      1.042      0.077     7.1442     83.664     33.992  32.793914     1.5284      8.362   291.6559 3.3886e+02     1.5762      1.024      1.485    23.3423   997.4802 0.0000e+00
      1.070      0.076     7.2428     84.757     33.998  32.773632     1.6061      8.362   291.1767 3.3126e+02     1.5696      1.052      1.527    23.2902   997.4928 0.0000e+00
      1.089      0.071     7.3339     85.757     33.960  32.709959     1.6543      8.363   290.3551 3.2969e+02     1.5567      1.069      1.550    23.2656   997.4987 0.0000e+00
      1.103      0.064     7.4029     86.480     34.009  32.722083     1.6513      8.363   289.8089 3.2812e+02     1.5510      1.083      1.570    23.2631   997.4993 0.0000e+00
      1.114      0.055     7.4427     86.821     34.070  32.729784     1.6050      8.361   289.5631 3.2343e+02     1.5657      1.094      1.587    23.2394   997.5052 0.0000e+00
      1.124      0.047     7.4512     86.790     34.004  32.612620     1.5452      8.361   289.4483 3.1863e+02     1.5712      1.100      1.596    23.1926   997.5164 0.0000e+00
      1.136      0.043     7.4355     86.485     33.951  32.511123     1.5186      8.365   289.4534 3.1498e+02     1.5837      1.111      1.612    23.1545   997.5254 0.0000e+00
      1.151      0.045     7.4078     85.992     34.033  32.517884     1.5173      8.368   289.5387 3.1068e+02     1.6197      1.132      1.642    23.1172   997.5344 0.0000e+00
      1.161      0.051     7.3714     85.351     34.114  32.503890     1.5206      8.369   289.5332 3.0740e+02     1.6780      1.143      1.657    23.0275   997.5558 0.0000e+00
      1.166      0.061     7.3249     84.617     34.163  32.468712     1.5235      8.370   289.3862 3.0704e+02     1.7641      1.141      1.654    22.9371   997.5772 0.0000e+00
      1.176      0.070     7.2730     83.881     34.229  32.473190     1.5261      8.370   289.1378 3.0737e+02     1.8096      1.147      1.664    22.8906   997.5882 0.0000e+00
      1.199      0.075     7.2231     83.213     34.227  32.431035     1.5270      8.370   288.8531 3.0740e+02     1.8012      1.172      1.700    22.7870   997.6127 0.0000e+00
      1.230      0.077     7.1802     82.647     34.163  32.339719     1.5250      8.369   288.8701 3.0554e+02     1.7942      1.207      1.750    22.6242   997.6509 0.0000e+00
      1.259      0.075     7.1495     82.233     34.103  32.257481     1.5364      8.368   288.9991 2.9476e+02     1.8231      1.238      1.796    22.5002   997.6799 0.0000e+00
      1.279      0.066     7.1346     82.010     33.998  32.134718     1.5696      8.370   288.9498 2.8067e+02     1.9213      1.256      1.824    22.4195   997.6988 0.0000e+00
      1.290      0.053     7.1356     81.963     33.879  31.997625     1.5881      8.372   288.8767 2.8097e+02     2.0303      1.266      1.837    22.3671   997.7109 0.0000e+00
      1.298      0.041     7.1522     82.092     33.839  31.932487     1.5785      8.373   288.8896 2.9019e+02     2.0601      1.273      1.846    22.3255   997.7204 0.0000e+00
      1.303      0.035     7.1862     82.409     33.789  31.854774     1.5575      8.374   288.6753 2.9085e+02     2.0193      1.279      1.854    22.2834   997.7301 0.0000e+00
      1.308      0.035     7.2360     82.881     33.661  31.692539     1.5341      8.374   288.1778 2.8782e+02     1.9961      1.281      1.858    22.2602   997.7354 0.0000e+00
      1.315      0.041     7.2951     83.446     33.567  31.557290     1.5291      8.374   288.0373 2.8915e+02     2.0416      1.286      1.867    22.2179   997.7451 0.0000e+00
      1.327      0.050     7.3626     84.098     33.547  31.488575     1.5412      8.373   288.2670 2.8809e+02     2.0779      1.301      1.887    22.1769   997.7546 0.0000e+00
      1.342      0.060     7.4351     84.811     33.538  31.432750     1.5410      8.371   288.5464 2.8397e+02     2.0739      1.317      1.908    22.1446   997.7620 0.0000e+00
      1.358      0.069     7.5002     85.466     33.530  31.389900     1.5263      8.366   288.8340 2.8205e+02     2.1247      1.330      1.929    22.0701   997.7790 0.0000e+00
      1.377      0.073     7.5545     86.006     33.523  31.351170     1.5203      8.362   289.0771 2.7903e+02     2.2011      1.349      1.956    22.0017   997.7946 0.0000e+00
      1.401      0.071     7.6068     86.527     33.480  31.281707     1.5285      8.359   289.0773 2.7453e+02     2.2433      1.374      1.993    21.9302   997.8108 0.0000e+00
      1.425      0.066     7.6643     87.141     33.393  31.184545     1.5569      8.359   288.7496 2.7168e+02     2.2745      1.399      2.030    21.8435   997.8305 0.0000e+00
      1.444      0.059     7.7273     87.830     33.345  31.128211     1.5859      8.358   288.3849 2.7070e+02     2.2831      1.419      2.058    21.8035   997.8397 0.0000e+00
      1.456      0.051     7.7899     88.484     33.347  31.108209     1.5844      8.357   288.1945 2.7258e+02     2.2826      1.429      2.073    21.7593   997.8496 0.0000e+00
      1.462      0.044     7.8494     89.067     33.344  31.069581     1.5816      8.356   288.2540 2.7667e+02     2.3013      1.433      2.078    21.6972   997.8635 0.0000e+00
      1.468      0.040     7.9104     89.660     33.355  31.041843     1.6044      8.357   288.8469 2.7943e+02     2.3116      1.437      2.084    21.6857   997.8661 0.0000e+00
      1.479      0.042     7.9724     90.283     33.371  31.026608     1.6346      8.357   289.7711 2.7858e+02     2.2763      1.450      2.103    21.6793   997.8676 0.0000e+00
      1.491      0.049     8.0220     90.780     33.382  31.012233     1.6521      8.357   290.1357 2.7958e+02     2.2354      1.464      2.122    21.6464   997.8750 0.0000e+00
      1.501      0.058     8.0599     91.150     33.387  30.994913     1.6514      8.355   289.9001 2.8869e+02     2.2434      1.471      2.133    21.5863   997.8884 0.0000e+00
      1.515      0.064     8.1120     91.681     33.356  30.944078     1.6433      8.353   289.6756 2.9476e+02     2.2413      1.482      2.150    21.5208   997.9030 0.0000e+00
      1.536      0.066     8.1968     92.567     33.343  30.905198     1.6581      8.350   289.7444 2.8945e+02     2.2107      1.505      2.182    21.4817   997.9118 0.0000e+00
      1.560      0.064     8.3060     93.714     33.377  30.905515     1.7000      8.349   290.3014 2.8361e+02     2.2333      1.532      2.221    21.4415   997.9208 0.0000e+00
      1.580      0.061     8.4165     94.877     33.387  30.884412     1.7165      8.349   290.9894 2.7955e+02     2.2519      1.552      2.250    21.4123   997.9274 0.0000e+00
      1.593      0.056     8.5212     95.986     33.367  30.840364     1.7014      8.350   291.1804 2.7549e+02     2.2064      1.563      2.268    21.3827   997.9340 0.0000e+00
      1.602      0.050     8.6306     97.156     33.365  30.817090     1.7169      8.350   291.0624 2.7367e+02     2.2403      1.572      2.280    21.3419   997.9430 0.0000e+00
      1.610      0.044     8.7353     98.281     33.360  30.793340     1.7566      8.351   290.7659 2.7184e+02     2.3994      1.577      2.288    21.2944   997.9535 0.0000e+00
      1.621      0.042     8.8033     99.006     33.321  30.743536     1.7658      8.352   290.4350 2.6883e+02     2.4914      1.588      2.304    21.2402   997.9655 0.0000e+00
      1.634      0.045     8.8231     99.188     33.314  30.722535     1.7581      8.352   290.6756 2.6779e+02     2.4681      1.605      2.328    21.2083   997.9724 0.0000e+00
      1.644      0.050     8.8170     99.079     33.337  30.729763     1.7769      8.353   291.1802 2.6797e+02     2.4134      1.613      2.340    21.1753   997.9796 0.0000e+00
      1.654      0.054     8.8180     99.056     33.321  30.704001     1.8102      8.355   291.2009 2.6339e+02     2.3215      1.618      2.348    21.1422   997.9869 0.0000e+00
      1.669      0.057     8.8482     99.350     33.296  30.664847     1.8231      8.356   290.9261 2.5669e+02     2.2420      1.635      2.371    21.1290   997.9899 0.0000e+00
      1.689      0.057     8.9043     99.915     33.290  30.637063     1.8205      8.356   290.7831 2.5250e+02     2.2052      1.656      2.403    21.1058   997.9951 0.0000e+00
      1.706      0.056     8.9660    100.547     33.295  30.621858     1.8130      8.357   290.7627 2.4849e+02     2.2045      1.675      2.429    21.0810   998.0006 0.0000e+00
      1.721      0.053     9.0222    101.140     33.294  30.607882     1.7925      8.358   290.7656 2.4307e+02     2.2338      1.688      2.448    21.0711   998.0028 0.0000e+00
      1.733      0.047     9.0768    101.728     33.289  30.594969     1.7734      8.358   290.8183 2.3737e+02     2.2315      1.700      2.466    21.0495   998.0074 0.0000e+00
      1.743      0.041     9.1332    102.339     33.294  30.592632     1.7726      8.359   290.8831 2.3209e+02     2.2087      1.710      2.481    21.0092   998.0162 0.0000e+00
      1.752      0.037     9.1892    102.936     33.290  30.579608     1.8166      8.359   290.8610 2.2779e+02     2.2861      1.718      2.491    20.9748   998.0238 0.0000e+00
      1.760      0.037     9.2377    103.439     33.288  30.564391     1.8991      8.358   290.8099 2.2464e+02     2.4464      1.726      2.503    20.9586   998.0273 0.0000e+00
      1.767      0.040     9.2727    103.777     33.276  30.535540     1.9451      8.357   290.8672 2.2307e+02     2.5089      1.734      2.514    20.9491   998.0293 0.0000e+00
      1.775      0.048     9.2941    103.937     33.249  30.484563     1.9479      8.353   291.0372 2.2281e+02     2.4849      1.740      2.523    20.9401   998.0314 0.0000e+00
      1.786      0.057     9.3099    104.012     33.254  30.455620     1.9424      8.348   291.3163 2.2171e+02     2.4830      1.750      2.539    20.9261   998.0344 0.0000e+00
      1.802      0.064     9.3298    104.129     33.273  30.439367     1.9389      8.345   291.6615 2.1953e+02     2.4865      1.766      2.561    20.9049   998.0391 0.0000e+00
      1.823      0.069     9.3473    104.233     33.279  30.414905     1.9486      8.342   291.7691 2.1660e+02     2.4610      1.785      2.589    20.8819   998.0440 0.0000e+00
      1.847      0.069     9.3514    104.203     33.304  30.413629     1.9556      8.341   291.5850 2.1287e+02     2.4380      1.812      2.628    20.8437   998.0524 0.0000e+00
      1.870      0.064     9.3427    104.050     33.335  30.423896     1.9459      8.342   291.3284 2.0979e+02     2.4374      1.837      2.664    20.7876   998.0646 0.0000e+00
      1.885      0.058     9.3283    103.857     33.335  30.412116     1.9445      8.343   291.2478 2.0767e+02     2.4207      1.850      2.683    20.7333   998.0763 0.0000e+00
      1.895      0.052     9.3217    103.767     33.325  30.398090     1.9565      8.343   291.8151 2.0544e+02     2.3676      1.859      2.696    20.6894   998.0857 0.0000e+00
      1.903      0.048     9.3281    103.822     33.313  30.381213     1.9595      8.342   292.8533 2.0324e+02     2.3191      1.867      2.708    20.6506   998.0940 0.0000e+00
      1.911      0.049     9.3394    103.902     33.278  30.334953     1.9556      8.341   293.4753 2.0113e+02     2.3266      1.872      2.715    20.6238   998.0997 0.0000e+00
      1.923      0.055     9.3518    103.947     33.254  30.282922     1.9617      8.339   293.4848 1.9913e+02     2.4250      1.883      2.731    20.6092   998.1028 0.0000e+00
      1.938      0.064     9.3676    104.002     33.271  30.259697     1.9894      8.336   293.2263 1.9754e+02     2.5913      1.901      2.757    20.6015   998.1046 0.0000e+00
      1.955      0.071     9.3855    104.080     33.298  30.244437     2.0214      8.333   293.1891 1.9494e+02     2.6986      1.917      2.778    20.6014   998.1047 0.0000e+00
      1.977      0.074     9.3960    104.086     33.316  30.225275     2.0281      8.332   293.8094 1.9049e+02     2.7073      1.936      2.808    20.5839   998.1085 0.0000e+00
      2.003      0.073     9.3864    103.892     33.340  30.218321     2.0271      8.332   294.7038 1.8588e+02     2.6967      1.965      2.850    20.5326   998.1195 0.0000e+00
      2.026      0.069     9.3544    103.479     33.367  30.223765     2.0437      8.332   295.1414 1.8263e+02     2.7002      1.989      2.886    20.4683   998.1332 0.0000e+00
      2.041      0.064     9.3151    103.006     33.385  30.227628     2.0637      8.332   295.2285 1.8013e+02     2.6848      2.003      2.905    20.4088   998.1459 0.0000e+00
      2.052      0.059     9.2859    102.646     33.370  30.201563     2.0793      8.332   295.4130 1.7762e+02     2.6417      2.012      2.918    20.3535   998.1575 0.0000e+00
      2.062      0.058     9.2717    102.443     33.343  30.162399     2.0934      8.331   295.5655 1.7538e+02     2.6048      2.023      2.934    20.3082   998.1670 0.0000e+00
      2.073      0.059     9.2755    102.435     33.330  30.134802     2.1128      8.326   295.5228 1.7297e+02     2.5989      2.033      2.947    20.2819   998.1726 0.0000e+00
      2.088      0.062     9.2987    102.626     33.340  30.121677     2.1317      8.323   295.7578 1.6915e+02     2.6360      2.045      2.965    20.2675   998.1756 0.0000e+00
      2.110      0.065     9.3381    102.969     33.383  30.130577     2.1403      8.321   296.4273 1.6431e+02     2.6601      2.068      3.000    20.2504   998.1793 0.0000e+00
      2.132      0.067     9.3912    103.461     33.400  30.115468     2.1378      8.321   296.9930 1.6050e+02     2.6286      2.093      3.036    20.2255   998.1846 0.0000e+00
      2.148      0.068     9.4505    104.042     33.371  30.065863     2.1542      8.323   297.2634 1.5760e+02     2.5490      2.107      3.056    20.2030   998.1894 0.0000e+00
      2.162      0.069     9.5069    104.609     33.360  30.038395     2.2165      8.324   297.3733 1.5387e+02     2.4517      2.118      3.072    20.1757   998.1951 0.0000e+00
      2.178      0.072     9.5574    105.107     33.379  30.037138     2.2667      8.324   297.4614 1.5000e+02     2.4348      2.137      3.099    20.1252   998.2057 0.0000e+00
      2.194      0.077     9.5983    105.480     33.421  30.050643     2.2767      8.324   297.3829 1.4659e+02     2.4763      2.152      3.122    20.0722   998.2168 0.0000e+00
      2.213      0.086     9.6263    105.689     33.482  30.074749     2.3278      8.324   297.1983 1.4234e+02     2.4297      2.167      3.143    20.0408   998.2233 0.0000e+00
      2.238      0.093     9.6447    105.778     33.522  30.074753     2.4343      8.323   297.3800 1.3757e+02     2.3299      2.194      3.182    20.0175   998.2283 0.0000e+00
      2.265      0.096     9.6602    105.832     33.536  30.050636     2.4986      8.320   297.7735 1.3326e+02     2.3180      2.222      3.223    19.9929   998.2335 0.0000e+00
      2.293      0.092     9.6734    105.867     33.560  30.036911     2.5071      8.318   298.0844 1.2891e+02     2.3511      2.248      3.260    19.9584   998.2408 0.0000e+00
      2.322      0.082     9.6794    105.834     33.594  30.035668     2.4931      8.318   298.2993 1.2479e+02     2.3377      2.279      3.306    19.9086   998.2511 0.0000e+00
      2.347      0.069     9.6795    105.760     33.621  30.035558     2.4589      8.318   298.2210 1.2214e+02     2.2875      2.306      3.345    19.8528   998.2627 0.0000e+00
      2.361      0.059     9.6870    105.788     33.640  30.035549     2.4407      8.319   297.9977 1.2084e+02     2.2356      2.318      3.362    19.7971   998.2742 0.0000e+00
      2.366      0.053     9.7112    106.004     33.657  30.035538     2.4462      8.320   298.0087 1.1994e+02     2.2338      2.321      3.366    19.7447   998.2848 0.0000e+00
      2.371      0.049     9.7485    106.356     33.677  30.035406     2.4475      8.321   298.1821 1.1866e+02     2.2659      2.322      3.368    19.6947   998.2950 0.0000e+00
      2.381      0.051     9.7915    106.757     33.699  30.033932     2.4484      8.322   298.4588 1.1636e+02     2.2625      2.330      3.380    19.6587   998.3024 0.0000e+00
      2.399      0.058     9.8337    107.152     33.704  30.017684     2.4564      8.321   298.8596 1.1356e+02     2.2585      2.353      3.412    19.6371   998.3068 0.0000e+00
      2.419      0.069     9.8756    107.550     33.666  29.965839     2.4664      8.319   299.2425 1.1137e+02     2.2825      2.374      3.443    19.6158   998.3113 0.0000e+00
      2.435      0.080     9.9256    108.020     33.634  29.914668     2.5526      8.317   299.4746 1.0955e+02     2.2260      2.388      3.462    19.5924   998.3161 0.0000e+00
      2.452      0.087     9.9833    108.536     33.664  29.906578     2.7099      8.316   299.5153 1.0730e+02     2.0999      2.402      3.483    19.5577   998.3231 0.0000e+00
      2.476      0.089    10.0350    108.959     33.669  29.867970     2.7900      8.315   299.5623 1.0432e+02     2.0363      2.425      3.516    19.5233   998.3302 0.0000e+00
      2.506      0.087    10.0741    109.248     33.600  29.765063     2.8008      8.313   299.6984 1.0118e+02     2.0133      2.458      3.566    19.5030   998.3344 0.0000e+00
      2.535      0.083    10.1057    109.483     33.539  29.677511     2.8147      8.313   299.7846 9.8731e+01     1.9867      2.489      3.611    19.4744   998.3403 0.0000e+00
      2.556      0.076    10.1331    109.705     33.515  29.634215     2.8707      8.314   299.9161 9.7091e+01     1.9764      2.510      3.640    19.4197   998.3514 0.0000e+00
      2.571      0.067    10.1566    109.914     33.517  29.622260     2.9757      8.314   300.1701 9.5892e+01     1.9867      2.522      3.658    19.3497   998.3654 0.0000e+00
      2.581      0.061    10.1780    110.119     33.496  29.596399     3.0437      8.313   300.4469 9.4774e+01     2.0131      2.531      3.672    19.2834   998.3786 0.0000e+00
      2.592      0.056    10.2008    110.322     33.415  29.511873     3.0516      8.312   300.6816 9.3496e+01     2.0332      2.542      3.687    19.2332   998.3886 0.0000e+00
      2.606      0.054    10.2321    110.557     33.353  29.425115     2.9764      8.311   300.8559 9.1937e+01     1.9673      2.555      3.705    19.2028   998.3946 0.0000e+00
      2.623      0.055    10.2742    110.867     33.342  29.372225     2.8359      8.311   301.0062 9.0266e+01     1.8396      2.573      3.730    19.1797   998.3993 0.0000e+00
      2.640      0.059    10.3191    111.211     33.326  29.316489     2.7574      8.311   301.1226 8.9152e+01     1.7674      2.592      3.759    19.1753   998.4003 0.0000e+00
      2.653      0.064    10.3614    111.539     33.302  29.258754     2.7467      8.311   301.2303 8.8701e+01     1.7501      2.603      3.776    19.1688   998.4015 0.0000e+00
      2.665      0.068    10.4004    111.838     33.256  29.181711     2.7241      8.308   301.4479 8.8034e+01     1.7279      2.610      3.787    19.1136   998.4124 0.0000e+00
      2.681      0.069    10.4348    112.065     33.191  29.082873     2.6749      8.306   301.8605 8.6634e+01     1.6628      2.627      3.809    19.0394   998.4271 0.0000e+00
      2.704      0.069    10.4644    112.206     33.173  29.015409     2.6289      8.306   302.2620 8.4888e+01     1.5857      2.651      3.845    18.9794   998.4389 0.0000e+00
      2.729      0.069    10.4894    112.301     33.140  28.936984     2.6008      8.306   302.4295 8.3563e+01     1.5818      2.679      3.885    18.9222   998.4503 0.0000e+00
      2.749      0.067    10.5094    112.371     33.068  28.832527     2.5775      8.305   302.5956 8.2900e+01     1.6823      2.698      3.914    18.8733   998.4599 0.0000e+00
      2.761      0.062    10.5272    112.432     33.037  28.767557     2.5468      8.305   302.9801 8.2348e+01     1.7843      2.706      3.925    18.8162   998.4709 0.0000e+00
      2.772      0.058    10.5467    112.547     33.016  28.722429     2.5251      8.305   303.0344 8.1696e+01     1.7999      2.717      3.940    18.7271   998.4881 0.0000e+00
      2.785      0.058    10.5703    112.753     32.968  28.667541     2.5144      8.305   302.7350 8.1150e+01     1.7723      2.733      3.963    18.6464   998.5037 0.0000e+00
      2.798      0.063    10.6033    113.053     32.920  28.611491     2.4698      8.305   302.8880 8.0493e+01     1.7130      2.744      3.979    18.5916   998.5143 0.0000e+00
      2.811      0.069    10.6518    113.467     32.886  28.552302     2.4018      8.305   303.2498 7.9426e+01     1.6065      2.754      3.994    18.5284   998.5264 0.0000e+00
      2.831      0.076    10.7157    113.992     32.830  28.459446     2.3686      8.306   303.5823 7.7966e+01     1.5344      2.774      4.024    18.4818   998.5353 0.0000e+00
      2.856      0.083    10.7912    114.591     32.727  28.313539     2.3631      8.306   304.0689 7.6626e+01     1.5284      2.804      4.066    18.4752   998.5366 0.0000e+00
      2.879      0.089    10.8764    115.226     32.663  28.183916     2.3615      8.306   303.9711 7.5652e+01     1.5344      2.824      4.096    18.4612   998.5393 0.0000e+00
      2.900      0.093    10.9643    115.848     32.662  28.097586     2.3572      8.306   303.2599 7.4439e+01     1.5418      2.841      4.120    18.4149   998.5482 0.0000e+00
      2.925      0.091    11.0413    116.390     32.671  28.030981     2.3457      8.306   302.9553 7.2953e+01     1.5522      2.869      4.160    18.3437   998.5617 0.0000e+00
      2.952      0.084    11.0960    116.767     32.713  28.012973     2.3348      8.305   303.0414 7.1604e+01     1.5622      2.896      4.200    18.2642   998.5768 0.0000e+00
      2.977      0.075    11.1276    116.951     32.753  28.006686     2.3211      8.304   303.3541 7.0477e+01     1.5641      2.921      4.235    18.1487   998.5985 0.0000e+00
      2.997      0.065    11.1478    117.027     32.736  27.954912     2.3016      8.304   303.8972 6.9767e+01     1.5413      2.943      4.268    17.9986   998.6265 0.0000e+00
      3.010      0.056    11.1674    117.067     32.644  27.831065     2.2809      8.305   304.1879 6.9562e+01     1.5166      2.955      4.286    17.8821   998.6480 0.0000e+00
      3.017      0.051    11.1909    117.084     32.504  27.651232     2.2701      8.307   304.1153 6.9531e+01     1.5283      2.958      4.291    17.8051   998.6621 0.0000e+00
      3.024      0.049    11.2227    117.120     32.412  27.493520     2.2676      8.308   303.9655 6.9255e+01     1.5510      2.963      4.297    17.7464   998.6728 0.0000e+00
      3.034      0.052    11.2612    117.184     32.388  27.383325     2.2761      8.308   304.0125 6.8596e+01     1.4961      2.973      4.311    17.6992   998.6814 0.0000e+00
      3.050      0.059    11.2974    117.245     32.429  27.333872     2.3044      8.308   304.2535 6.7690e+01     1.3896      2.991      4.338    17.6337   998.6934 0.0000e+00
      3.069      0.069    11.3205    117.275     32.502  27.339595     2.3226      8.307   304.6416 6.6846e+01     1.3436      3.011      4.367    17.5406   998.7102 0.0000e+00
      3.086      0.076    11.3265    117.235     32.518  27.325568     2.3234      8.305   305.0047 6.6043e+01     1.3333      3.027      4.389    17.4161   998.7325 0.0000e+00
      3.106      0.079    11.3237    117.116     32.505  27.291125     2.3134      8.304   305.2022 6.4895e+01     1.3312      3.043      4.415    17.2677   998.7590 0.0000e+00
      3.130      0.076    11.3156    116.930     32.553  27.303793     2.2880      8.305   305.4807 6.3552e+01     1.3502      3.069      4.451    17.1234   998.7844 0.0000e+00
      3.155      0.071    11.2928    116.646     32.549  27.288360     2.2686      8.306   305.7919 6.2529e+01     1.3664      3.097      4.491    17.0318   998.8006 0.0000e+00
      3.174      0.064    11.2580    116.262     32.414  27.167952     2.2604      8.307   305.9529 6.1876e+01     1.3634      3.116      4.519    17.0154   998.8036 0.0000e+00
      3.187      0.055    11.2335    115.873     32.320  27.053392     2.2672      8.309   306.1368 6.1391e+01     1.3470      3.127      4.536    16.9835   998.8091 0.0000e+00
      3.196      0.046    11.2303    115.563     32.323  26.981731     2.2982      8.309   306.2948 6.0940e+01     1.3650      3.134      4.546    16.9204   998.8201 0.0000e+00
      3.206      0.041    11.2359    115.308     32.291  26.872400     2.3227      8.309   306.4002 6.0459e+01     1.3841      3.144      4.559    16.9038   998.8230 0.0000e+00
      3.215      0.042    11.2428    115.079     32.236  26.746471     2.3212      8.309   306.7237 5.9997e+01     1.3484      3.154      4.573    16.9254   998.8193 0.0000e+00
      3.223      0.049    11.2560    114.889     32.241  26.664454     2.3154      8.308   307.2804 5.9481e+01     1.2937      3.159      4.582    16.8770   998.8276 0.0000e+00
      3.233      0.061    11.2732    114.708     32.252  26.578503     2.3214      8.308   307.7966 5.8801e+01     1.2807      3.169      4.596    16.7329   998.8524 0.0000e+00
      3.247      0.073    11.2881    114.489     32.239  26.468438     2.3246      8.308   308.0615 5.7873e+01     1.3216      3.182      4.615    16.5986   998.8753 0.0000e+00
      3.268      0.082    11.2938    114.182     32.289  26.412062     2.3187      8.308   308.1591 5.6564e+01     1.3294      3.200      4.642    16.4872   998.8940 0.0000e+00
      3.298      0.085    11.2765    113.701     32.379  26.404274     2.3111      8.309   308.2893 5.5078e+01     1.3099      3.232      4.688    16.3535   998.9165 0.0000e+00
      3.330      0.085    11.2270    112.995     32.411  26.374177     2.3109      8.310   308.5169 5.3883e+01     1.2824      3.269      4.742    16.1998   998.9422 0.0000e+00
      3.354      0.081    11.1560    112.101     32.381  26.301872     2.3258      8.310   308.6739 5.3210e+01     1.1934      3.295      4.778    16.0487   998.9670 0.0000e+00
      3.368      0.076    11.0824    111.131     32.367  26.227835     2.3347      8.309   308.7245 5.2790e+01     1.1181      3.303      4.790    15.8903   998.9927 0.0000e+00
      3.378      0.070    11.0132    110.159     32.398  26.176787     2.3314      8.309   308.8720 5.2248e+01     1.0933      3.310      4.801    15.7482   999.0156 0.0000e+00
      3.393      0.065    10.9457    109.179     32.443  26.128645     2.3727      8.310   309.0795 5.1496e+01     1.0252      3.325      4.822    15.6805   999.0264 0.0000e+00
      3.414      0.064    10.8775    108.199     32.499  26.089742     2.4620      8.311   309.3408 5.0685e+01     0.9167      3.348      4.855    15.6228   999.0356 0.0000e+00
      3.436      0.068    10.8061    107.234     32.584  26.086968     2.5087      8.311   309.7085 5.0117e+01     0.8627      3.371      4.890    15.5187   999.0521 0.0000e+00
      3.451      0.072    10.7311    106.311     32.658  26.095014     2.5033      8.311   309.9980 4.9758e+01     0.8319      3.385      4.910    15.3997   999.0707 0.0000e+00
      3.465      0.072    10.6591    105.481     32.656  26.060086     2.4672      8.312   310.0018 4.9271e+01     0.8059      3.396      4.925    15.2646   999.0917 0.0000e+00
      3.482      0.069    10.5985    104.755     32.603  25.981831     2.4097      8.312   309.7547 4.8577e+01     0.8435      3.412      4.950    15.1290   999.1126 0.0000e+00
      3.504      0.066    10.5460    104.061     32.577  25.910082     2.3802      8.313   309.5048 4.7884e+01     0.8933      3.437      4.986    15.0156   999.1298 0.0000e+00
      3.526      0.065    10.4880    103.304     32.620  25.890357     2.3794      8.315   309.3893 4.7394e+01     0.8837      3.460      5.018    14.9340   999.1422 0.0000e+00
      3.541      0.065    10.4206    102.474     32.656  25.870154     2.4259      8.316   309.4776 4.7108e+01     0.8582      3.474      5.040    14.9006   999.1473 0.0000e+00
      3.552      0.064    10.3478    101.597     32.617  25.792632     2.5176      8.315   309.7120 4.6863e+01     0.8801      3.483      5.051    14.8539   999.1543 0.0000e+00
      3.564      0.064    10.2723    100.677     32.586  25.714277     2.5693      8.315   309.8998 4.6442e+01     0.9195      3.493      5.064    14.7642   999.1676 0.0000e+00
      3.581      0.067    10.1890     99.667     32.621  25.683987     2.5744      8.315   310.0272 4.5860e+01     0.9413      3.511      5.091    14.6763   999.1807 0.0000e+00
      3.601      0.072    10.0939     98.567     32.681  25.680096     2.5785      8.313   310.1343 4.5315e+01     0.9139      3.532      5.123    14.6061   999.1911 0.0000e+00
      3.621      0.077     9.9965     97.485     32.716  25.667164     2.6450      8.311   310.2474 4.4853e+01     0.8503      3.551      5.150    14.5389   999.2010 0.0000e+00
      3.641      0.078     9.9054     96.459     32.755  25.654460     2.7802      8.311   310.5349 4.4381e+01     0.8278      3.569      5.176    14.4577   999.2127 0.0000e+00
      3.663      0.075     9.8211     95.496     32.810  25.653320     2.8622      8.311   310.8565 4.3834e+01     0.8380      3.591      5.208    14.3587   999.2271 0.0000e+00
      3.686      0.070     9.7372     94.566     32.856  25.653337     2.8642      8.311   310.9529 4.3345e+01     0.8429      3.617      5.246    14.2742   999.2393 0.0000e+00
      3.704      0.065     9.6482     93.584     32.906  25.654620     2.8990      8.312   311.0117 4.3050e+01     0.8540      3.635      5.273    14.2291   999.2458 0.0000e+00
      3.716      0.062     9.5513     92.483     32.991  25.668799     2.9886      8.312   311.5674 4.2808e+01     0.8740      3.644      5.285    14.1625   999.2552 0.0000e+00
      3.727      0.062     9.4463     91.269     33.113  25.697834     3.0457      8.311   312.4243 4.2471e+01     0.8881      3.654      5.299    14.0799   999.2669 0.0000e+00
      3.741      0.067     9.3383     90.010     33.276  25.751837     3.0604      8.310   312.7679 4.2067e+01     0.8932      3.666      5.319    14.0365   999.2730 0.0000e+00
      3.756      0.076     9.2272     88.712     33.456  25.814144     3.1139      8.309   312.9687 4.1552e+01     0.8704      3.681      5.339    13.9892   999.2797 0.0000e+00
      3.777      0.086     9.1136     87.382     33.566  25.816691     3.2168      8.308   313.3034 4.0831e+01     0.8422      3.701      5.367    13.9062   999.2912 0.0000e+00
      3.804      0.093     8.9975     86.027     33.633  25.782539     3.2814      8.306   313.2865 4.0051e+01     0.8467      3.730      5.410    13.8039   999.3054 0.0000e+00
      3.832      0.095     8.8747     84.606     33.748  25.781762     3.2970      8.304   313.1952 3.9339e+01     0.8592      3.760      5.452    13.6940   999.3205 0.0000e+00
      3.859      0.091     8.7326     83.007     33.898  25.807192     3.3012      8.303   313.9201 3.8632e+01     0.8632      3.784      5.488    13.5788   999.3362 0.0000e+00
      3.885      0.083     8.5539     81.097     34.039  25.836139     3.2974      8.302   315.0826 3.7995e+01     0.8615      3.812      5.528    13.4555   999.3527 0.0000e+00
      3.907      0.072     8.3321     78.837     34.174  25.877904     3.2858      8.302   315.4632 3.7564e+01     0.8718      3.835      5.563    13.3285   999.3695 0.0000e+00
      3.922      0.062     8.0615     76.147     34.314  25.931463     3.2734      8.303   315.4250 3.7278e+01     0.8895      3.848      5.581    13.1975   999.3867 0.0000e+00
      3.932      0.052     7.7457     73.039     34.443  25.976138     3.2342      8.304   315.3943 3.6916e+01     0.8787      3.853      5.589    13.0581   999.4046 0.0000e+00
      3.943      0.047     7.4040     69.706     34.589  26.037352     3.1586      8.305   315.3503 3.6481e+01     0.8402      3.865      5.606    12.9346   999.4203 0.0000e+00
      3.954      0.047     7.0512     66.292     34.730  26.100577     3.1225      8.305   315.6677 3.6169e+01     0.8501      3.880      5.628    12.8543   999.4305 0.0000e+00
      3.963      0.052     6.6961     62.884     34.782  26.106120     3.1266      8.305   316.3057 3.5887e+01     0.9000      3.885      5.635    12.7860   999.4391 0.0000e+00
      3.973      0.061     6.3526     59.633     34.797  26.104326     3.1211      8.305   316.8698 3.5442e+01     0.8857      3.893      5.646    12.7015   999.4495 0.0000e+00
      3.990      0.071     6.0396     56.699     35.013  26.269206     3.1520      8.303   317.1542 3.4877e+01     0.8404      3.912      5.674    12.6323   999.4582 0.0000e+00
      4.011      0.080     5.7687     54.106     35.465  26.577046     3.2319      8.301   317.3346 3.4300e+01     0.8452      3.933      5.703    12.5715   999.4658 0.0000e+00
      4.034      0.087     5.5437     51.802     35.813  26.717677     3.2805      8.299   317.5030 3.3675e+01     0.8782      3.954      5.734    12.5115   999.4731 0.0000e+00
      4.060      0.089     5.3524     49.717     35.959  26.637137     3.2880      8.298   317.5550 3.2931e+01     0.9102      3.980      5.772    12.4936   999.4753 0.0000e+00
      4.089      0.086     5.1772     47.816     36.090  26.554682     3.2623      8.297   317.4480 3.2240e+01     0.9702      4.012      5.819    12.5225   999.4721 0.0000e+00
      4.113      0.078     5.0127     46.131     36.230  26.545281     3.2045      8.295   317.3278 3.1794e+01     1.0468      4.037      5.855    12.5227   999.4724 0.0000e+00
      4.129      0.067     4.8617     44.672     36.266  26.523350     3.1700      8.294   317.2202 3.1440e+01     1.0832      4.049      5.873    12.3426   999.4940 0.0000e+00
      4.143      0.058     4.7202     43.345     36.232  26.479797     3.1740      8.294   317.1792 3.1028e+01     1.0825      4.061      5.891    12.0235   999.5313 0.0000e+00
      4.155      0.053     4.5713     41.959     36.228  26.462769     3.2014      8.294   317.3483 3.0758e+01     1.1041      4.078      5.915    11.7470   999.5625 0.0000e+00
      4.163      0.056     4.4103     40.464     36.221  26.444331     3.2319      8.293   317.6297 3.0644e+01     1.1144      4.084      5.923    11.5957   999.5792 0.0000e+00
      4.171      0.064     4.2483     38.969     36.148  26.383745     3.2389      8.290   318.0012 3.0358e+01     1.0758      4.086      5.926    11.5540   999.5838 0.0000e+00
      4.186      0.074     4.0994     37.583     35.971  26.237756     3.2256      8.287   318.4833 2.9834e+01     1.0634      4.102      5.950    11.5404   999.5852 0.0000e+00
      4.210      0.084     3.9747     36.371     35.742  26.011466     3.1401      8.285   319.0713 2.9244e+01     1.1288      4.128      5.988    11.5206   999.5875 0.0000e+00
      4.238      0.094     3.8844     35.414     35.616  25.804646     2.9779      8.285   319.7755 2.8646e+01     1.2434      4.156      6.028    11.4956   999.5904 0.0000e+00
      4.267      0.100     3.8367     34.819     35.670  25.703680     2.8768      8.285   320.4592 2.8057e+01     1.3022      4.184      6.068    11.4928   999.5908 0.0000e+00
      4.295      0.105     3.8299     34.623     35.800  25.678706     2.8449      8.285   320.7989 2.7542e+01     1.3481      4.214      6.110    11.4906   999.5911 0.0000e+00
      4.320      0.110     3.8665     34.863     35.842  25.629445     2.6798      8.285   320.6136 2.7151e+01     1.6345      4.238      6.147    11.4180   999.5989 0.0000e+00
      4.341      0.114     3.9541     35.592     35.807  25.552074     2.3800      8.285   320.2836 2.6757e+01     2.0452      4.255      6.171    11.2386   999.6178 0.0000e+00
      4.368      0.114     4.1043     36.892     35.802  25.504441     2.2114      8.285   320.3366 2.6143e+01     2.2168      4.278      6.205    11.0124   999.6412 0.0000e+00
      4.406      0.113     4.3341     38.907     35.848  25.497553     2.1931      8.285   321.0829 2.5408e+01     2.2026      4.320      6.266    10.8382   999.6590 0.0000e+00
      4.445      0.111     4.6440     41.648     35.940  25.532189     2.1846      8.285   321.9937 2.4815e+01     2.1684      4.364      6.328    10.7357   999.6692 0.0000e+00
      4.472      0.106     5.0142     44.945     35.977  25.542555     2.0564      8.285   322.3145 2.4413e+01     2.2623      4.390      6.367    10.6760   999.6751 0.0000e+00
      4.491      0.098     5.4192     48.570     35.917  25.495990     1.8137      8.284   322.3806 2.4040e+01     2.4852      4.403      6.387    10.6159   999.6810 0.0000e+00
      4.511      0.089     5.8333     52.282     35.888  25.476700     1.6777      8.283   322.2766 2.3540e+01     2.6025      4.420      6.412    10.5550   999.6869 0.0000e+00
      4.535      0.082     6.2308     55.846     35.921  25.499630     1.6604      8.283   322.0035 2.3046e+01     2.6320      4.449      6.452    10.5117   999.6912 0.0000e+00
      4.556      0.078     6.5916     59.084     35.946  25.519478     1.6393      8.282   322.4340 2.2669e+01     2.6459      4.470      6.483    10.4891   999.6935 0.0000e+00
      4.575      0.075     6.8959     61.825     35.945  25.526363     1.6050      8.280   323.3515 2.2252e+01     2.6388      4.485      6.504    10.4891   999.6935 0.0000e+00
      4.595      0.071     7.1261     63.913     35.919  25.519439     1.5832      8.278   323.8048 2.1829e+01     2.6435      4.507      6.536    10.4939   999.6932 0.0000e+00
      4.613      0.070     7.2893     65.390     35.882  25.499211     1.5755      8.278   324.0432 2.1524e+01     2.6378      4.527      6.564    10.4913   999.6935 0.0000e+00
      4.627      0.070     7.4014     66.383     35.851  25.472126     1.5806      8.277   324.2552 2.1266e+01     2.6683      4.538      6.581    10.4915   999.6936 0.0000e+00
      4.641      0.072     7.4681     66.958     35.830  25.445703     1.5933      8.275   324.1304 2.0943e+01     2.7493      4.549      6.598    10.5012   999.6927 0.0000e+00
      4.660      0.075     7.4962     67.188     35.827  25.433478     1.5911      8.274   323.8246 2.0530e+01     2.7983      4.568      6.626    10.5231   999.6907 0.0000e+00
      4.681      0.079     7.4984     67.187     35.865  25.451180     1.5795      8.273   323.7413 2.0093e+01     2.8026      4.591      6.658    10.5377   999.6894 0.0000e+00
      4.704      0.083     7.4835     67.028     35.907  25.469407     1.5653      8.272   323.9846 1.9643e+01     2.8010      4.613      6.689    10.5250   999.6907 0.0000e+00
      4.727      0.084     7.4565     66.761     35.915  25.463537     1.5406      8.270   324.2713 1.9197e+01     2.8445      4.637      6.725    10.5031   999.6928 0.0000e+00
      4.749      0.084     7.4250     66.462     35.899  25.443623     1.5237      8.268   324.4544 1.8805e+01     2.8696      4.658      6.755    10.4926   999.6939 0.0000e+00
      4.770      0.083     7.3943     66.177     35.870  25.418943     1.5265      8.265   324.7351 1.8424e+01     2.8428      4.677      6.783    10.4816   999.6952 0.0000e+00
      4.790      0.079     7.3682     65.941     35.871  25.418892     1.5052      8.262   325.0845 1.8069e+01     2.8482      4.697      6.813    10.4622   999.6971 0.0000e+00
      4.810      0.074     7.3483     65.764     35.905  25.443005     1.4482      8.261   325.1512 1.7713e+01     2.8692      4.715      6.839    10.4451   999.6987 0.0000e+00
      4.831      0.069     7.3352     65.648     35.924  25.456722     1.4089      8.260   324.7673 1.7342e+01     2.8670      4.737      6.872    10.4334   999.6999 0.0000e+00
      4.849      0.064     7.3282     65.584     35.926  25.457865     1.3946      8.259   324.3149 1.7126e+01     2.8220      4.759      6.902    10.4282   999.7005 0.0000e+00
      4.863      0.057     7.3242     65.543     35.928  25.456835     1.3873      8.258   324.3274 1.6987e+01     2.7839      4.769      6.917    10.4280   999.7006 0.0000e+00
      4.876      0.051     7.3203     65.503     35.914  25.444263     1.3648      8.257   324.5736 1.6787e+01     2.8315      4.781      6.934    10.4288   999.7006 0.0000e+00
      4.889      0.046     7.3141     65.443     35.901  25.432729     1.3219      8.256   324.7966 1.6652e+01     2.8738      4.797      6.956    10.4295   999.7006 0.0000e+00
      4.899      0.043     7.3031     65.341     35.919  25.444254     1.2935      8.254   325.0450 1.6626e+01     2.8366      4.806      6.970    10.4291   999.7007 0.0000e+00
      4.907      0.043     7.2891     65.212     35.939  25.456733     1.2812      8.254   325.1679 1.6557e+01     2.8076      4.810      6.977    10.4258   999.7010 0.0000e+00
      4.917      0.045     7.2755     65.088     35.940  25.456732     1.2943      8.253   324.8198 1.6352e+01     2.8184      4.820      6.990    10.4214   999.7015 0.0000e+00
      4.931      0.050     7.2623     64.968     35.924  25.444243     1.3301      8.251   324.1916 1.6151e+01     2.8359      4.836      7.014    10.4181   999.7018 0.0000e+00
      4.943      0.058     7.2516     64.873     35.907  25.432604     1.3416      8.250   324.1117 1.6018e+01     2.8549      4.849      7.033    10.4163   999.7021 0.0000e+00
      4.955      0.064     7.2468     64.830     35.922  25.442892     1.3299      8.247   324.4567 1.5807e+01     2.8526      4.856      7.044    10.4140   999.7023 0.0000e+00
      4.972      0.066     7.2450     64.811     35.923  25.441749     1.3009      8.245   324.8350 1.5466e+01     2.8404      4.873      7.068    10.4120   999.7026 0.0000e+00
      4.996      0.066     7.2419     64.778     35.894  25.418775     1.2518      8.244   325.3295 1.5086e+01     2.8380      4.900      7.107    10.4113   999.7028 0.0000e+00
      5.019      0.067     7.2371     64.733     35.895  25.418878     1.2208      8.242   325.6174 1.4782e+01     2.8243      4.925      7.143    10.4118   999.7028 0.0000e+00
      5.035      0.072     7.2319     64.687     35.928  25.442995     1.2208      8.238   325.6484 1.4621e+01     2.8380      4.941      7.167    10.4124   999.7029 0.0000e+00
      5.044      0.081     7.2283     64.657     35.946  25.456608     1.2519      8.235   325.7908 1.4492e+01     2.8725      4.946      7.174    10.4100   999.7031 0.0000e+00
      5.055      0.092     7.2263     64.637     35.948  25.456599     1.3029      8.233   325.9629 1.4156e+01     2.8487      4.950      7.180    10.4058   999.7035 0.0000e+00
      5.080      0.104     7.2284     64.650     35.932  25.442882     1.3346      8.230   326.0087 1.3591e+01     2.8120      4.977      7.217    10.4030   999.7039 0.0000e+00
      5.116      0.114     7.2366     64.719     35.900  25.417630     1.3398      8.229   326.0862 1.2980e+01     2.8221      5.018      7.277    10.4050   999.7040 0.0000e+00
      5.156      0.118     7.2470     64.807     35.885  25.405038     1.3138      8.228   326.2119 1.2419e+01     2.8400      5.057      7.335    10.4084   999.7038 0.0000e+00
      5.194      0.115     7.2557     64.882     35.904  25.417508     1.2460      8.226   326.3239 1.1953e+01     2.8649      5.096      7.391    10.4058   999.7043 0.0000e+00
      5.225      0.107     7.2625     64.941     35.939  25.441521     1.1871      8.225   326.5789 1.1643e+01     2.8932      5.128      7.438    10.4018   999.7048 0.0000e+00
      5.246      0.097     7.2660     64.974     35.939  25.441615     1.1745      8.223   326.9725 1.1482e+01     2.8864      5.148      7.466    10.3983   999.7051 0.0000e+00
      5.260      0.087     7.2658     64.975     35.905  25.418649     1.1714      8.222   327.2973 1.1327e+01     2.8819      5.157      7.478    10.3949   999.7055 0.0000e+00
      5.277      0.081     7.2623     64.950     35.900  25.417608     1.1749      8.221   327.5808 1.1037e+01     2.9040      5.171      7.499    10.3930   999.7058 0.0000e+00
      5.302      0.083     7.2568     64.906     35.912  25.429029     1.2001      8.218   327.9054 1.0727e+01     2.9241      5.200      7.542    10.3921   999.7060 0.0000e+00
      5.327      0.092     7.2545     64.890     35.910  25.429861     1.2156      8.216   328.1246 1.0554e+01     2.8966      5.228      7.583    10.3923   999.7062 0.0000e+00
      5.344      0.103     7.2574     64.915     35.907  25.427658     1.2147      8.215   328.2525 1.0393e+01     2.8334      5.239      7.598    10.3947   999.7059 0.0000e+00
      5.365      0.109     7.2621     64.950     35.876  25.402396     1.1807      8.214   328.2470 1.0056e+01     2.8474      5.253      7.619    10.3986   999.7056 0.0000e+00
      5.400      0.110     7.2674     64.990     35.847  25.378176     1.1170      8.214   328.1445 9.6121e+00     2.9679      5.294      7.677    10.4026   999.7055 0.0000e+00
      5.441      0.111     7.2715     65.021     35.866  25.388566     1.0943      8.213   328.3033 9.2732e+00     3.0772      5.341      7.745    10.4073   999.7053 0.0000e+00
      5.472      0.111     7.2728     65.031     35.884  25.401148     1.1058      8.211   328.5313 9.0570e+00     3.0872      5.370      7.788    10.4071   999.7054 0.0000e+00
      5.494      0.110     7.2733     65.038     35.885  25.403428     1.1177      8.209   328.7513 8.8783e+00     3.0572      5.389      7.816    10.4006   999.7061 0.0000e+00
      5.514      0.105     7.2718     65.029     35.901  25.416123     1.1437      8.208   329.1558 8.7018e+00     3.0747      5.407      7.842    10.3943   999.7068 0.0000e+00
      5.538      0.100     7.2651     64.970     35.916  25.427772     1.1674      8.207   329.4640 8.4693e+00     3.1018      5.427      7.872    10.3904   999.7073 0.0000e+00
      5.568      0.099     7.2579     64.905     35.902  25.417382     1.1709      8.206   329.0372 8.1946e+00     3.0901      5.461      7.920    10.3897   999.7075 0.0000e+00
      5.599      0.099     7.2546     64.873     35.904  25.417381     1.1939      8.205   328.0388 7.9721e+00     3.0647      5.494      7.968    10.3926   999.7074 0.0000e+00
      5.623      0.097     7.2526     64.852     35.921  25.427762     1.2469      8.202   327.6314 7.7988e+00     3.0568      5.515      7.999    10.3960   999.7071 0.0000e+00
      5.644      0.092     7.2517     64.841     35.906  25.416010     1.2823      8.201   327.8113 7.6131e+00     3.0926      5.534      8.026    10.3971   999.7071 0.0000e+00
      5.668      0.084     7.2527     64.847     35.889  25.402170     1.2928      8.201   328.2338 7.4375e+00     3.1040      5.558      8.061    10.3959   999.7074 0.0000e+00
      5.691      0.077     7.2546     64.862     35.869  25.387298     1.2867      8.200   328.9551 7.3036e+00     3.0636      5.584      8.098    10.3941   999.7076 0.0000e+00
      5.710      0.072     7.2582     64.893     35.835  25.363076     1.2523      8.199   329.3051 7.1903e+00     3.0634      5.602      8.125    10.3919   999.7080 0.0000e+00
      5.724      0.068     7.2617     64.925     35.834  25.363067     1.1977      8.199   328.7665 7.0740e+00     3.1018      5.613      8.142    10.3896   999.7082 0.0000e+00
      5.739      0.064     7.2632     64.940     35.868  25.387183     1.1640      8.198   327.8627 6.9356e+00     3.1342      5.627      8.161    10.3877   999.7085 0.0000e+00
      5.755      0.064     7.2635     64.944     35.887  25.400900     1.1573      8.196   327.4114 6.7986e+00     3.1281      5.645      8.187    10.3864   999.7087 0.0000e+00
      5.771      0.067     7.2626     64.936     35.888  25.402044     1.1509      8.194   327.3529 6.6893e+00     3.0274      5.660      8.209    10.3860   999.7087 0.0000e+00
      5.787      0.071     7.2611     64.921     35.888  25.401024     1.1469      8.193   327.5008 6.5727e+00     2.8994      5.672      8.228    10.3863   999.7088 0.0000e+00
      5.806      0.073     7.2587     64.898     35.871  25.388555     1.1526      8.192   327.9088 6.4293e+00     2.8584      5.691      8.255    10.3874   999.7088 0.0000e+00
      5.827      0.077     7.2556     64.869     35.857  25.378166     1.1510      8.190   328.3288 6.2770e+00     2.8601      5.715      8.290    10.3889   999.7088 0.0000e+00
      5.848      0.083     7.2536     64.850     35.892  25.402283     1.1441      8.188   328.6202 6.1410e+00     2.8545      5.736      8.320    10.3885   999.7089 0.0000e+00
      5.867      0.088     7.2505     64.821     35.927  25.426391     1.1481      8.187   328.7650 6.0207e+00     2.8559      5.754      8.345    10.3866   999.7092 0.0000e+00
      5.887      0.092     7.2479     64.797     35.913  25.415896     1.1557      8.185   328.7037 5.8804e+00     2.8443      5.771      8.370    10.3853   999.7094 0.0000e+00
      5.911      0.095     7.2503     64.817     35.895  25.402263     1.1665      8.184   328.5677 5.7091e+00     2.8122      5.795      8.405    10.3847   999.7095 0.0000e+00
      5.940      0.096     7.2563     64.869     35.877  25.388442     1.1658      8.182   328.5822 5.5404e+00     2.7958      5.825      8.449    10.3843   999.7097 0.0000e+00
      5.970      0.099     7.2626     64.924     35.859  25.375660     1.1554      8.181   328.7929 5.4139e+00     2.8101      5.857      8.494    10.3837   999.7099 0.0000e+00
      5.995      0.100     7.2686     64.978     35.857  25.374602     1.1541      8.179   329.1362 5.3136e+00     2.8531      5.881      8.529    10.3830   999.7101 0.0000e+00
      6.015      0.099     7.2745     65.031     35.859  25.375650     1.1502      8.175   329.5492 5.1961e+00     2.8903      5.897      8.553    10.3819   999.7103 0.0000e+00
      6.038      0.094     7.2802     65.081     35.876  25.388328     1.1423      8.174   329.8296 5.0576e+00     2.8663      5.919      8.584    10.3807   999.7105 0.0000e+00
      6.066      0.088     7.2850     65.125     35.894  25.401016     1.1457      8.173   329.7727 4.9069e+00     2.8250      5.948      8.627    10.3802   999.7107 0.0000e+00
      6.093      0.082     7.2897     65.169     35.894  25.402169     1.1570      8.173   329.6364 4.7629e+00     2.8175      5.977      8.670    10.3804   999.7108 0.0000e+00
      6.116      0.075     7.2953     65.224     35.892  25.402273     1.1651      8.173   329.7304 4.6654e+00     2.8413      6.000      8.702    10.3808   999.7108 0.0000e+00
      6.131      0.069     7.2975     65.251     35.887  25.402283     1.1665      8.172   329.8764 4.6055e+00     2.8836      6.014      8.723    10.3802   999.7110 0.0000e+00
      6.142      0.066     7.2912     65.206     35.879  25.402283     1.1564      8.169   329.9384 4.5378e+00     2.9691      6.023      8.735    10.3804   999.7110 0.0000e+00
      6.153      0.066     7.2794     65.109     35.874  25.402282     1.1470      8.167   329.9644 4.4489e+00     3.0551      6.033      8.749    10.3825   999.7108 0.0000e+00
      6.168      0.071     7.2694     65.017     35.875  25.402273     1.1482      8.166   329.9314 4.3429e+00     3.0713      6.047      8.770    10.3847   999.7107 0.0000e+00
      6.188      0.077     7.2621     64.944     35.880  25.402168     1.1619      8.166   329.9702 4.2318e+00     3.0997      6.067      8.799    10.3880   999.7104 0.0000e+00
      6.212      0.082     7.2536     64.862     35.882  25.401016     1.2000      8.165   330.0900 4.1295e+00     3.1352      6.092      8.835    10.3980   999.7097 0.0000e+00
      6.238      0.084     7.2443     64.775     35.867  25.388338     1.2455      8.162   330.1750 4.0285e+00     3.1401      6.117      8.872    10.4065   999.7091 0.0000e+00
      6.263      0.084     7.2388     64.724     35.850  25.375763     1.2694      8.160   330.3097 3.9388e+00     3.1592      6.143      8.910    10.4030   999.7095 0.0000e+00
      6.283      0.081     7.2410     64.741     35.852  25.375848     1.2811      8.159   330.5135 3.8779e+00     3.1369      6.164      8.940    10.3960   999.7102 0.0000e+00
      6.299      0.074     7.2470     64.793     35.872  25.389366     1.2830      8.159   330.4021 3.8165e+00     3.0665      6.176      8.958    10.3915   999.7107 0.0000e+00
      6.316      0.067     7.2519     64.835     35.906  25.412321     1.2754      8.159   329.9104 3.7341e+00     3.0294      6.191      8.980    10.3897   999.7109 0.0000e+00
      6.337      0.061     7.2559     64.869     35.889  25.399633     1.2754      8.158   329.5583 3.6656e+00     3.0489      6.217      9.017    10.3889   999.7111 0.0000e+00
      6.354      0.057     7.2606     64.910     35.838  25.362837     1.2827      8.157   329.4141 3.6382e+00     3.0727      6.236      9.044    10.3874   999.7114 0.0000e+00
      6.363      0.056     7.2693     64.986     35.818  25.348061     1.3116      8.155   329.3721 3.6152e+00     2.9896      6.239      9.049    10.3854   999.7116 0.0000e+00
      6.372      0.056     7.2781     65.065     35.818  25.347853     1.3648      8.154   329.3939 3.5585e+00     2.8633      6.246      9.060    10.3843   999.7118 0.0000e+00
      6.386      0.059     7.2838     65.118     35.834  25.360323     1.3969      8.153   329.4194 3.4987e+00     2.8565      6.262      9.083    10.3845   999.7118 0.0000e+00
      6.402      0.064     7.2905     65.181     35.849  25.371960     1.3967      8.152   329.5954 3.4562e+00     2.9080      6.277      9.106    10.3834   999.7119 0.0000e+00
      6.419      0.069     7.2962     65.232     35.834  25.361673     1.3544      8.152   329.7145 3.4042e+00     2.9618      6.294      9.129    10.3816   999.7122 0.0000e+00
      6.439      0.071     7.2994     65.258     35.837  25.362818     1.2747      8.151   329.5684 3.3338e+00     3.0473      6.313      9.158    10.3813   999.7123 0.0000e+00
      6.460      0.069     7.3025     65.284     35.871  25.385803     1.2226      8.150   329.4643 3.2564e+00     3.0899      6.336      9.190    10.3836   999.7122 0.0000e+00
      6.481      0.066     7.3038     65.295     35.872  25.385823     1.2101      8.149   329.4028 3.1819e+00     3.0832      6.357      9.220    10.3857   999.7121 0.0000e+00
      6.497      0.063     7.3030     65.286     35.841  25.363058     1.2096      8.148   329.2544 3.1338e+00     3.0654      6.373      9.243    10.3853   999.7122 0.0000e+00
      6.510      0.062     7.3015     65.271     35.843  25.364316     1.2084      8.146   329.2182 3.1212e+00     2.9730      6.384      9.260    10.3837   999.7124 0.0000e+00
      6.520      0.064     7.2979     65.239     35.895  25.401026     1.2036      8.144   329.7402 3.1015e+00     2.8510      6.394      9.274    10.3825   999.7126 0.0000e+00
      6.533      0.069     7.2937     65.199     35.932  25.426278     1.2039      8.144   330.4892 3.0418e+00     2.8355      6.404      9.288    10.3814   999.7128 0.0000e+00
      6.551      0.074     7.2907     65.171     35.918  25.415887     1.2125      8.144   330.6159 2.9592e+00     2.8831      6.421      9.315    10.3802   999.7129 0.0000e+00
      6.576      0.079     7.2869     65.135     35.900  25.402265     1.2203      8.142   330.5842 2.8862e+00     2.9351      6.449      9.353    10.3799   999.7131 0.0000e+00
      6.601      0.079     7.2841     65.110     35.881  25.388454     1.2201      8.140   330.7085 2.8230e+00     3.0061      6.473      9.388    10.3799   999.7132 0.0000e+00
      6.624      0.074     7.2840     65.108     35.864  25.375776     1.2186      8.138   330.5698 2.7611e+00     3.0534      6.497      9.424    10.3785   999.7135 0.0000e+00
      6.644      0.067     7.2838     65.106     35.864  25.375851     1.2202      8.137   330.2836 2.7136e+00     3.0809      6.519      9.455    10.3773   999.7137 0.0000e+00
      6.658      0.060     7.2845     65.112     35.883  25.389368     1.2052      8.137   330.7765 2.6871e+00     3.1093      6.530      9.471    10.3768   999.7138 0.0000e+00
      6.667      0.054     7.2888     65.150     35.916  25.412333     1.1760      8.136   331.9685 2.6676e+00     3.1008      6.537      9.482    10.3759   999.7139 0.0000e+00
      6.677      0.050     7.2934     65.191     35.898  25.399757     1.1618      8.135   332.4795 2.6337e+00     3.0441      6.547      9.496    10.3756   999.7139 0.0000e+00
      6.690      0.050     7.2954     65.210     35.847  25.364191     1.1632      8.133   332.3943 2.5927e+00     3.0141      6.560      9.514    10.3757   999.7140 0.0000e+00
      6.705      0.053     7.2954     65.210     35.845  25.362943     1.1751      8.131   332.3145 2.5577e+00     3.0336      6.576      9.537    10.3754   999.7141 0.0000e+00
      6.718      0.059     7.2917     65.176     35.876  25.384668     1.1933      8.131   332.1178 2.5244e+00     3.0501      6.590      9.556    10.3752   999.7142 0.0000e+00
      6.730      0.067     7.2868     65.132     35.861  25.373107     1.2089      8.130   331.9950 2.4933e+00     3.0816      6.598      9.570    10.3752   999.7142 0.0000e+00
      6.746      0.080     7.2829     65.095     35.829  25.350028     1.2172      8.129   332.2930 2.4507e+00     3.1198      6.614      9.593    10.3756   999.7143 0.0000e+00
      6.766      0.096     7.2779     65.050     35.843  25.359379     1.2152      8.127   332.7087 2.3814e+00     3.1197      6.635      9.622    10.3759   999.7143 0.0000e+00
      6.790      0.112     7.2730     65.006     35.843  25.359294     1.2115      8.126   332.8054 2.3010e+00     3.0792      6.656      9.654    10.3755   999.7145 0.0000e+00
      6.822      0.123     7.2703     64.981     35.829  25.348999     1.2150      8.125   332.7729 2.2206e+00     3.0237      6.686      9.698    10.3746   999.7147 0.0000e+00
      6.862      0.125     7.2689     64.969     35.848  25.361789     1.2239      8.124   332.7471 2.1303e+00     3.0053      6.728      9.757    10.3737   999.7150 0.0000e+00
      6.906      0.118     7.2689     64.969     35.883  25.387059     1.2143      8.124   332.6652 2.0458e+00     3.0208      6.776      9.828    10.3732   999.7153 0.0000e+00
      6.942      0.108     7.2720     64.999     35.900  25.400777     1.1765      8.123   332.6427 1.9969e+00     3.0483      6.814      9.884    10.3732   999.7154 0.0000e+00
      6.964      0.097     7.2753     65.030     35.899  25.400767     1.1481      8.123   332.7332 1.9792e+00     3.0743      6.833      9.911    10.3729   999.7156 0.0000e+00
      6.976      0.087     7.2765     65.040     35.880  25.386946     1.1493      8.121   332.8133 1.9622e+00     3.0734      6.841      9.922    10.3720   999.7157 0.0000e+00
      6.989      0.078     7.2769     65.041     35.844  25.360541     1.1558      8.119   332.8368 1.9162e+00     3.0709      6.851      9.935    10.3724   999.7157 0.0000e+00
      7.009      0.074     7.2792     65.060     35.810  25.335262     1.1581      8.119   332.8451 1.8453e+00     3.0761      6.870      9.965    10.3743   999.7156 0.0000e+00
      7.034      0.074     7.2841     65.103     35.811  25.335063     1.1595      8.119   332.7410 1.7837e+00     3.0708      6.899     10.006    10.3755   999.7157 0.0000e+00
      7.057      0.074     7.2879     65.136     35.844  25.358132     1.1559      8.117   332.5249 1.7497e+00     3.0724      6.923     10.041    10.3756   999.7158 0.0000e+00
      7.075      0.073     7.2918     65.171     35.847  25.360419     1.1570      8.116   332.3836 1.7277e+00     3.0954      6.938     10.064    10.3742   999.7160 0.0000e+00
      7.090      0.072     7.2973     65.221     35.849  25.362715     1.1641      8.115   332.6676 1.7019e+00     3.1199      6.952     10.083    10.3721   999.7162 0.0000e+00
      7.106      0.072     7.3051     65.292     35.880  25.385896     1.1636      8.114   333.2907 1.6772e+00     3.1060      6.968     10.106    10.3710   999.7163 0.0000e+00
      7.122      0.076     7.3154     65.387     35.880  25.386946     1.1599      8.112   333.6370 1.6513e+00     3.0587      6.984     10.130    10.3711   999.7165 0.0000e+00
      7.141      0.086     7.3234     65.458     35.864  25.375404     1.1621      8.112   333.7574 1.6161e+00     3.0401      7.001     10.154    10.3713   999.7165 0.0000e+00
      7.163      0.099     7.3311     65.526     35.862  25.373221     1.1818      8.111   333.7135 1.5788e+00     3.0766      7.022     10.184    10.3712   999.7166 0.0000e+00
      7.190      0.110     7.3429     65.631     35.845  25.360552     1.2076      8.109   333.3648 1.5373e+00     3.1081      7.049     10.225    10.3730   999.7166 0.0000e+00
      7.220      0.119     7.3499     65.692     35.829  25.349104     1.2138      8.106   333.0683 1.4845e+00     3.0930      7.080     10.269    10.3753   999.7165 0.0000e+00
      7.255      0.122     7.3490     65.682     35.847  25.361687     1.2141      8.106   333.4839 1.4313e+00     3.0909      7.114     10.317    10.3754   999.7167 0.0000e+00
      7.293      0.122     7.3506     65.696     35.882  25.385804     1.2193      8.105   334.5185 1.3948e+00     3.1153      7.153     10.374    10.3739   999.7170 0.0000e+00
      7.328      0.119     7.3536     65.722     35.884  25.386948     1.2160      8.104   335.0805 1.3722e+00     3.1251      7.189     10.427    10.3727   999.7173 0.0000e+00
      7.356      0.114     7.3529     65.717     35.868  25.375518     1.2095      8.103   335.1174 1.3360e+00     3.1114      7.216     10.466    10.3721   999.7175 0.0000e+00
      7.377      0.109     7.3547     65.733     35.867  25.374479     1.2098      8.101   335.0500 1.2866e+00     3.0808      7.234     10.491    10.3715   999.7176 0.0000e+00
      7.401      0.104     7.3498     65.688     35.867  25.374384     1.2105      8.101   334.6959 1.2416e+00     3.0501      7.256     10.523    10.3709   999.7178 0.0000e+00
      7.430      0.103     7.3346     65.552     35.868  25.374366     1.1928      8.100   334.3643 1.2073e+00     3.0355      7.288     10.570    10.3705   999.7180 0.0000e+00
      7.457      0.103     7.3291     65.502     35.868  25.374261     1.1689      8.099   334.6534 1.1901e+00     3.0352      7.315     10.609    10.3706   999.7181 0.0000e+00
      7.483      0.101     7.3301     65.509     35.867  25.373107     1.1643      8.097   335.3529 1.1599e+00     3.0464      7.337     10.640    10.3707   999.7182 0.0000e+00
      7.511      0.098     7.3213     65.430     35.850  25.360419     1.1547      8.097   335.8520 1.1038e+00     3.0719      7.365     10.682    10.3701   999.7184 0.0000e+00
      7.540      0.096     7.3121     65.348     35.832  25.347732     1.1564      8.097   336.1283 1.0584e+00     3.0824      7.398     10.729    10.3697   999.7186 0.0000e+00
      7.560      0.098     7.3132     65.360     35.829  25.346588     1.1847      8.096   336.2835 1.0415e+00     3.0739      7.417     10.757    10.3693   999.7187 0.0000e+00
      7.576      0.100     7.3234     65.452     35.829  25.346587     1.2025      8.095   336.1803 1.0361e+00     3.0679      7.427     10.772    10.3685   999.7188 0.0000e+00
      7.599      0.100     7.3368     65.572     35.830  25.347721     1.2060      8.094   335.9991 1.0077e+00     3.0764      7.447     10.802    10.3678   999.7190 0.0000e+00
      7.632      0.100     7.3451     65.645     35.848  25.360304     1.1925      8.093   335.7273 9.5428e-01     3.0773      7.482     10.852    10.3679   999.7191 0.0000e+00
      7.667      0.102     7.3456     65.649     35.864  25.371839     1.1699      8.091   335.3893 9.1360e-01     3.0793      7.522     10.909    10.3691   999.7192 0.0000e+00
      7.693      0.103     7.3431     65.627     35.848  25.360315     1.1579      8.091   335.4398 8.9688e-01     3.1002      7.548     10.946    10.3702   999.7192 0.0000e+00
      7.712      0.100     7.3446     65.642     35.830  25.347847     1.1521      8.090   335.5638 8.7601e-01     3.0682      7.562     10.966    10.3702   999.7193 0.0000e+00
      7.734      0.094     7.3482     65.675     35.829  25.347971     1.1510      8.089   335.6839 8.4535e-01     3.0194      7.581     10.996    10.3698   999.7194 0.0000e+00
      7.761      0.088     7.3488     65.682     35.847  25.361811     1.1531      8.089   336.0317 8.1998e-01     3.0349      7.610     11.037    10.3695   999.7196 0.0000e+00
      7.787      0.086     7.3474     65.673     35.883  25.388311     1.1433      8.088   336.1549 8.0914e-01     3.0587      7.638     11.077    10.3695   999.7197 0.0000e+00
      7.808      0.087     7.3474     65.677     35.917  25.414621     1.1281      8.086   335.7114 8.0424e-01     3.0455      7.659     11.108    10.3701   999.7198 0.0000e+00
      7.825      0.092     7.3494     65.700     35.930  25.426164     1.1343      8.085   334.9710 7.9031e-01     3.0392      7.674     11.130    10.3714   999.7197 0.0000e+00
      7.842      0.102     7.3528     65.730     35.895  25.400998     1.1489      8.084   334.6020 7.7134e-01     3.0474      7.689     11.152    10.3728   999.7197 0.0000e+00
      7.865      0.112     7.3542     65.737     35.846  25.364090     1.1489      8.083   334.6060 7.4680e-01     3.0471      7.709     11.181    10.3738   999.7197 0.0000e+00
      7.896      0.119     7.3508     65.699     35.846  25.360554     1.1420      8.082   334.8470 7.2307e-01     3.0355      7.738     11.224    10.3771   999.7195 0.0000e+00
      7.937      0.123     7.3447     65.638     35.846  25.358249     1.1437      8.081   335.2800 6.9554e-01     3.0054      7.782     11.287    10.3815   999.7193 0.0000e+00
      7.981      0.123     7.3348     65.548     35.817  25.336211     1.1611      8.080   335.4528 6.5756e-01     3.0101      7.831     11.359    10.3812   999.7195 0.0000e+00
      8.014      0.119     7.3181     65.399     35.834  25.347849     1.1874      8.079   335.3008 6.3087e-01     3.0601      7.865     11.408    10.3772   999.7201 0.0000e+00
      8.035      0.110     7.3043     65.276     35.868  25.372079     1.2016      8.078   335.0782 6.1146e-01     3.0529      7.880     11.430    10.3719   999.7207 0.0000e+00
      8.055      0.098     7.2984     65.226     35.870  25.375426     1.2024      8.077   334.9116 5.8520e-01     3.0209      7.895     11.452    10.3675   999.7212 0.0000e+00
      8.081      0.089     7.2931     65.185     35.884  25.388313     1.1977      8.076   334.8348 5.6702e-01     3.0669      7.925     11.493    10.3660   999.7214 0.0000e+00
      8.107      0.086     7.2913     65.177     35.897  25.401008     1.1794      8.075   334.9239 5.6288e-01     3.1177      7.955     11.538    10.3660   999.7215 0.0000e+00
      8.126      0.087     7.2946     65.212     35.895  25.402048     1.1634      8.074   335.0429 5.5483e-01     3.1101      7.970     11.560    10.3665   999.7216 0.0000e+00
      8.144      0.087     7.2972     65.240     35.890  25.400895     1.1603      8.073   335.0685 5.3733e-01     3.1061      7.983     11.579    10.3683   999.7215 0.0000e+00
      8.166      0.085     7.3002     65.270     35.868  25.387074     1.1761      8.072   335.2340 5.2956e-01     3.1353      8.008     11.615    10.3721   999.7213 0.0000e+00
      8.190      0.081     7.3052     65.316     35.832  25.361812     1.2066      8.071   335.6672 5.3280e-01     3.1352      8.032     11.650    10.3785   999.7208 0.0000e+00
      8.214      0.076     7.3092     65.353     35.813  25.349219     1.2177      8.071   336.0908 5.2816e-01     3.1047      8.055     11.682    10.3821   999.7205 0.0000e+00
      8.236      0.071     7.3108     65.373     35.828  25.361688     1.2157      8.070   336.2253 5.1134e-01     3.0942      8.079     11.717    10.3837   999.7206 0.0000e+00
      8.253      0.067     7.3116     65.384     35.858  25.385700     1.2336      8.068   336.2608 4.9457e-01     3.0415      8.098     11.744    10.3881   999.7202 0.0000e+00
      8.263      0.067     7.3122     65.389     35.858  25.385793     1.2687      8.066   336.4343 4.8342e-01     2.9258      8.104     11.754    10.3883   999.7202 0.0000e+00
      8.273      0.071     7.3145     65.400     35.832  25.362811     1.2852      8.066   336.6023 4.7111e-01     2.8430      8.109     11.762    10.3877   999.7203 0.0000e+00
      8.289      0.078     7.3172     65.411     35.839  25.361573     1.2767      8.066   336.3132 4.6196e-01     2.8261      8.127     11.787    10.3916   999.7200 0.0000e+00
      8.313      0.085     7.3144     65.376     35.859  25.370820     1.2704      8.065   335.7787 4.5487e-01     2.8858      8.150     11.821    10.3964   999.7197 0.0000e+00
      8.341      0.090     7.3104     65.334     35.831  25.347734     1.2782      8.064   335.6461 4.3477e-01     3.0083      8.179     11.863    10.3972   999.7197 0.0000e+00
      8.371      0.091     7.3100     65.326     35.817  25.336190     1.2931      8.063   335.7418 4.0685e-01     3.0941      8.211     11.909    10.3899   999.7206 0.0000e+00
      8.396      0.088     7.3094     65.318     35.850  25.358124     1.2944      8.062   335.9039 3.9249e-01     3.1040      8.237     11.947    10.3794   999.7217 0.0000e+00
      8.416      0.082     7.3104     65.325     35.853  25.359183     1.2765      8.063   336.3157 3.9009e-01     3.0954      8.253     11.971    10.3726   999.7225 0.0000e+00
      8.432      0.077     7.3078     65.301     35.839  25.348983     1.2417      8.063   336.7630 3.8434e-01     3.1200      8.268     11.991    10.3690   999.7228 0.0000e+00
      8.449      0.072     7.3077     65.299     35.857  25.361669     1.1941      8.062   336.2354 3.7561e-01     3.1404      8.286     12.017    10.3663   999.7231 0.0000e+00
      8.467      0.068     7.3260     65.464     35.890  25.385692     1.1601      8.060   334.9260 3.7194e-01     3.1450      8.302     12.042    10.3643   999.7234 0.0000e+00
      8.487      0.063     7.3485     65.667     35.890  25.385683     1.1520      8.058   334.3530 3.7186e-01     3.1434      8.322     12.070    10.3632   999.7236 0.0000e+00
      8.507      0.059     7.3563     65.737     35.855  25.361565     1.1571      8.056   334.3840 3.6902e-01     3.1206      8.344     12.102    10.3625   999.7237 0.0000e+00
      8.522      0.057     7.3549     65.724     35.836  25.347837     1.1607      8.055   334.6999 3.6587e-01     3.1315      8.360     12.125    10.3621   999.7238 0.0000e+00
      8.531      0.058     7.3588     65.756     35.836  25.346580     1.1516      8.055   335.4184 3.6313e-01     3.1445      8.367     12.134    10.3627   999.7239 0.0000e+00
      8.538      0.062     7.3623     65.785     35.838  25.346362     1.1429      8.054   335.9295 3.4990e-01     3.1138      8.370     12.140    10.3641   999.7237 0.0000e+00
      8.550      0.069     7.3623     65.782     35.838  25.345208     1.1598      8.054   335.6310 3.2525e-01     3.0878      8.381     12.155    10.3650   999.7237 0.0000e+00
      8.572      0.079     7.3612     65.772     35.820  25.332624     1.1903      8.053   334.7354 3.0910e-01     3.0919      8.405     12.188    10.3642   999.7239 0.0000e+00
      8.599      0.088     7.3550     65.717     35.804  25.321090     1.2085      8.051   334.2204 3.0563e-01     3.0986      8.433     12.231    10.3625   999.7242 0.0000e+00
      8.625      0.093     7.3489     65.662     35.820  25.332625     1.2163      8.049   334.2228 2.9883e-01     3.0705      8.459     12.269    10.3605   999.7245 0.0000e+00
      8.651      0.092     7.3428     65.607     35.838  25.345218     1.2066      8.049   334.4202 2.7848e-01     3.0468      8.483     12.305    10.3582   999.7248 0.0000e+00
      8.677      0.087     7.3362     65.547     35.840  25.346467     1.1776      8.048   334.7138 2.6849e-01     3.0416      8.511     12.345    10.3580   999.7250 0.0000e+00
      8.700      0.083     7.3317     65.506     35.842  25.347724     1.1600      8.048   334.9342 2.8148e-01     3.0405      8.535     12.379    10.3595   999.7249 0.0000e+00
      8.716      0.081     7.3241     65.436     35.861  25.360421     1.1591      8.047   335.2784 2.7289e-01     3.0662      8.548     12.398    10.3592   999.7250 0.0000e+00
      8.730      0.078     7.3122     65.329     35.880  25.373099     1.1578      8.046   335.6057 2.4970e-01     3.0897      8.559     12.414    10.3582   999.7252 0.0000e+00
      8.749      0.076     7.3035     65.250     35.882  25.374139     1.1528      8.045   335.6227 2.5256e-01     3.0952      8.578     12.441    10.3577   999.7253 0.0000e+00
      8.774      0.076     7.2962     65.184     35.881  25.372986     1.1511      8.045   335.5694 2.5803e-01     3.1001      8.605     12.480    10.3568   999.7255 0.0000e+00
      8.797      0.079     7.2890     65.118     35.863  25.359164     1.1543      8.045   335.5638 2.4160e-01     3.0832      8.631     12.518    10.3566   999.7256 0.0000e+00
      8.815      0.079     7.2899     65.123     35.829  25.333894     1.1572      8.044   335.6410 2.2920e-01     3.0551      8.646     12.540    10.3555   999.7258 0.0000e+00
      8.831      0.077     7.2910     65.130     35.814  25.321207     1.1596      8.042   335.8136 2.2941e-01     3.0548      8.658     12.557    10.3540   999.7260 0.0000e+00
      8.851      0.076     7.2829     65.055     35.831  25.332646     1.1571      8.041   336.0165 2.2478e-01     3.0807      8.679     12.588    10.3545   999.7261 0.0000e+00
      8.874      0.076     7.2724     64.960     35.850  25.345324     1.1531      8.040   336.2877 2.2338e-01     3.1058      8.705     12.626    10.3533   999.7263 0.0000e+00
      8.893      0.077     7.2641     64.887     35.853  25.347610     1.1541      8.038   336.5109 2.2724e-01     3.0962      8.722     12.651    10.3507   999.7267 0.0000e+00
      8.909      0.078     7.2564     64.818     35.870  25.360288     1.1522      8.038   336.5643 2.1664e-01     3.0632      8.734     12.667    10.3487   999.7269 0.0000e+00
      8.929      0.079     7.2484     64.748     35.886  25.371728     1.1473      8.038   336.5035 2.0207e-01     3.0663      8.754     12.697    10.3471   999.7271 0.0000e+00
      8.951      0.081     7.2412     64.684     35.868  25.359050     1.1470      8.037   336.5504 1.9931e-01     3.1012      8.781     12.735    10.3465   999.7273 0.0000e+00
      8.971      0.082     7.2365     64.643     35.832  25.333885     1.1486      8.036   336.7865 1.8859e-01     3.0925      8.798     12.761    10.3470   999.7273 0.0000e+00
      8.990      0.081     7.2354     64.633     35.814  25.321216     1.1317      8.034   336.6910 1.7832e-01     2.9934      8.813     12.783    10.3476   999.7274 0.0000e+00
      9.015      0.077     7.2392     64.667     35.830  25.332749     1.0990      8.034   336.1706 1.8367e-01     2.8862      8.840     12.822    10.3477   999.7275 0.0000e+00
      9.041      0.074     7.2477     64.742     35.850  25.346457     1.0910      8.034   335.9152 1.8266e-01     2.8770      8.870     12.864    10.3481   999.7276 0.0000e+00
      9.058      0.074     7.2572     64.827     35.869  25.360080     1.1052      8.033   336.0117 1.6609e-01     2.9156      8.886     12.888    10.3486   999.7276 0.0000e+00
      9.068      0.075     7.2667     64.912     35.884  25.370585     1.1055      8.032   336.0471 1.6101e-01     2.9595      8.891     12.894    10.3488   999.7276 0.0000e+00
      9.082      0.077     7.2764     65.000     35.850  25.346581     1.0945      8.031   336.1711 1.6885e-01     3.0471      8.902     12.911    10.3484   999.7277 0.0000e+00
      9.103      0.079     7.2865     65.090     35.817  25.323607     1.0941      8.029   336.5643 1.5986e-01     3.1230      8.925     12.945    10.3480   999.7279 0.0000e+00
      9.129      0.082     7.2951     65.166     35.850  25.346572     1.1002      8.028   336.4992 1.4562e-01     3.1230      8.951     12.982    10.3478   999.7280 0.0000e+00
      9.156      0.083     7.2987     65.198     35.883  25.370482     1.0822      8.028   335.8133 1.4131e-01     3.0808      8.978     13.023    10.3482   999.7281 0.0000e+00
      9.179      0.083     7.2968     65.183     35.865  25.358947     1.0406      8.027   335.4127 1.3797e-01     3.0379      9.005     13.061    10.3486   999.7282 0.0000e+00
      9.196      0.082     7.2899     65.127     35.827  25.333989     1.0217      8.027   335.4420 1.3264e-01     3.0314      9.021     13.083    10.3490   999.7282 0.0000e+00
      9.211      0.080     7.2813     65.052     35.810  25.322473     1.0276      8.027   335.3925 1.3299e-01     3.0669      9.030     13.098    10.3487   999.7283 0.0000e+00
      9.229      0.077     7.2742     64.987     35.845  25.346591     1.0249      8.026   335.2453 1.3626e-01     3.0739      9.048     13.123    10.3478   999.7285 0.0000e+00
      9.252      0.075     7.2668     64.917     35.883  25.371834     1.0159      8.024   335.2968 1.3202e-01     3.0505      9.074     13.161    10.3499   999.7284 0.0000e+00
      9.277      0.073     7.2580     64.835     35.888  25.373922     1.0137      8.023   335.7562 1.2769e-01     3.0797      9.099     13.197    10.3546   999.7281 0.0000e+00
      9.297      0.072     7.2514     64.775     35.885  25.371834     1.0252      8.022   336.3257 1.2759e-01     3.1317      9.119     13.227    10.3562   999.7280 0.0000e+00
      9.312      0.068     7.2495     64.759     35.849  25.346581     1.0408      8.021   336.5042 1.2771e-01     3.1216      9.133     13.247    10.3538   999.7283 0.0000e+00
      9.324      0.063     7.2489     64.756     35.814  25.322361     1.0383      8.021   336.4527 1.2586e-01     3.0564      9.142     13.260    10.3514   999.7286 0.0000e+00
      9.339      0.058     7.2490     64.760     35.826  25.332751     1.0213      8.020   336.1323 1.2429e-01     3.0310      9.157     13.282    10.3493   999.7289 0.0000e+00
      9.357      0.058     7.2517     64.787     35.842  25.345323     1.0170      8.019   335.7287 1.2846e-01     3.0771      9.179     13.313    10.3480   999.7291 0.0000e+00
      9.371      0.062     7.2554     64.822     35.844  25.347497     1.0295      8.019   335.7882 1.3264e-01     3.0894      9.192     13.332    10.3482   999.7291 0.0000e+00
      9.382      0.068     7.2599     64.862     35.861  25.359041     1.0600      8.019   336.6802 1.2879e-01     3.0481      9.199     13.341    10.3504   999.7289 0.0000e+00
      9.397      0.075     7.2635     64.892     35.861  25.358012     1.1087      8.019   337.9955 1.2420e-01     3.0368      9.213     13.363    10.3531   999.7287 0.0000e+00
      9.417      0.083     7.2640     64.893     35.830  25.335048     1.1408      8.018   338.4418 1.2362e-01     3.0840      9.233     13.393    10.3544   999.7287 0.0000e+00
      9.443      0.090     7.2629     64.882     35.831  25.335144     1.1529      8.017   338.0314 1.2360e-01     3.1276      9.260     13.431    10.3560   999.7287 0.0000e+00
      9.472      0.093     7.2621     64.873     35.866  25.359177     1.1596      8.015   337.4216 1.2364e-01     3.1042      9.289     13.474    10.3562   999.7288 0.0000e+00
      9.498      0.092     7.2598     64.852     35.885  25.371865     1.1527      8.013   336.8335 1.2362e-01     3.0641      9.315     13.509    10.3535   999.7292 0.0000e+00
      9.523      0.087     7.2554     64.812     35.871  25.361673     1.1467      8.012   336.3415 1.2359e-01     3.0686      9.339     13.545    10.3514   999.7295 0.0000e+00
      9.545      0.080     7.2518     64.780     35.873  25.362825     1.1489      8.012   336.3772 1.2358e-01     3.0928      9.363     13.580    10.3506   999.7297 0.0000e+00
      9.562      0.070     7.2503     64.766     35.905  25.385800     1.1356      8.010   337.0068 1.2360e-01     3.0941      9.378     13.602    10.3499   999.7298 0.0000e+00
      9.576      0.059     7.2513     64.775     35.905  25.385697     1.1072      8.008   337.3285 1.2366e-01     3.0847      9.390     13.618    10.3492   999.7300 0.0000e+00
      9.592      0.048     7.2539     64.799     35.870  25.361580     1.0828      8.006   337.1700 1.2366e-01     3.0782      9.408     13.645    10.3491   999.7301 0.0000e+00
      9.605      0.038     7.2560     64.818     35.850  25.347966     1.0749      8.005   336.9835 1.2363e-01     3.0798      9.423     13.667    10.3489   999.7302 0.0000e+00
      9.613      0.029     7.2575     64.833     35.850  25.347967     1.0818      8.004   336.6215 1.2358e-01     3.1048      9.428     13.674    10.3485   999.7302 0.0000e+00
      9.617      0.020     7.2601     64.858     35.869  25.361591     1.0700      8.003   336.0633 1.2352e-01     3.1182      9.431     13.679    10.3488   999.7302 0.0000e+00
      9.619      0.014     7.2634     64.888     35.902  25.385811     1.0372      8.001   335.8261 1.2351e-01     3.1107      9.433     13.682    10.3491   999.7302 0.0000e+00
      9.620      0.009     7.2654     64.909     35.901  25.387059     1.0228      8.001   335.9047 1.2358e-01     3.1124      9.434     13.683    10.3497   999.7301 0.0000e+00
      9.621      0.006     7.2670     64.932     35.881  25.376677     1.0341      8.000   335.9817 1.2368e-01     3.1061      9.435     13.685    10.3505   999.7301 0.0000e+00
      9.623      0.006     7.2676     64.951     35.887  25.387172     1.0533      7.998   335.9823 1.2368e-01     3.0673      9.437     13.687    10.3509   999.7300 0.0000e+00
      9.625      0.005     7.2687     64.975     35.877  25.387077     1.0727      7.996   335.9987 1.2360e-01     3.0363      9.438     13.689    10.3513   999.7300 0.0000e+00
      9.627      0.005     7.2727     65.021     35.854  25.375533     1.0858      7.996   336.0074 1.2354e-01     3.0597      9.440     13.692    10.3535   999.7298 0.0000e+00
      9.627      0.005     7.2787     65.081     35.848  25.374484     1.0913      7.996   336.0016 1.2354e-01     3.0868      9.441     13.693    10.3585   999.7293 0.0000e+00
      9.628      0.004     7.2835     65.131     35.843  25.374399     1.0864      7.995   335.5839 1.2358e-01     3.0696      9.442     13.694    10.3687   999.7283 0.0000e+00
      9.629      0.003     7.2875     65.174     35.838  25.374495     1.0615      7.994   334.7432 1.2361e-01     3.0485      9.443     13.696    10.3802   999.7273 0.0000e+00
      9.631      0.003     7.2935     65.233     35.836  25.375657     1.0416      7.993   334.4408 1.2362e-01     3.0613      9.444     13.697    10.3855   999.7269 0.0000e+00
      9.631      0.002     7.2980     65.280     35.850  25.388449     1.0453      7.992   334.5953 1.2360e-01     3.0923      9.445     13.699    10.3890   999.7265 0.0000e+00
      9.631      0.002     7.2988     65.295     35.865  25.402280     1.0368      7.990   334.9759 1.2357e-01     3.0962      9.445     13.699    10.3934   999.7261 0.0000e+00
      9.632      0.001     7.2978     65.291     35.881  25.416017     0.9997      7.989   335.6866 1.2357e-01     3.0761      9.445     13.699    10.3988   999.7256 0.0000e+00
      9.632      0.001     7.2952     65.264     35.900  25.427666     0.9697      7.989   336.1340 1.2361e-01     3.0788      9.446     13.700    10.4031   999.7252 0.0000e+00
      9.632      0.001     7.2902     65.214     35.887  25.416245     0.9691      7.989   335.4813 1.2366e-01     3.0962      9.446     13.700    10.4047   999.7251 0.0000e+00
      9.632      0.001     7.2836     65.154     35.872  25.404807     1.0087      7.988   334.0750 1.2372e-01     3.0898      9.446     13.701    10.4117   999.7243 0.0000e+00
      9.632      0.000     7.2765     65.095     35.884  25.416246     1.0676      7.987   333.4130 1.2372e-01     3.0671      9.446     13.700    10.4175   999.7238 0.0000e+00
      9.633 1.8629e-08     7.2730     65.075     35.894  25.427676     1.0917      7.986   333.4992 1.2363e-01     3.0510      9.446     13.701    10.4134   999.7243 0.0000e+00
      9.633 2.0492e-07     7.2728     65.088     35.867  25.416131     1.0923      7.985   333.8277 1.2356e-01     3.0583      9.446     13.701    10.4068   999.7249 0.0000e+00
      9.633 2.0493e-07     7.2701     65.078     35.841  25.403547     1.0918      7.984   334.3731 1.2357e-01     3.0894      9.446     13.701    10.4061   999.7249 0.0000e+00
      9.632 1.8783e-08     7.2674     65.058     35.836  25.402404     1.1117      7.983   334.6727 1.2363e-01     3.1004      9.446     13.700    10.4110   999.7245 0.0000e+00
      9.632 3.3871e-09     7.2672     65.055     35.836  25.402309     1.1342      7.982   334.6975 1.2368e-01     3.0932      9.446     13.700    10.4162   999.7240 0.0000e+00
      9.633 -9.990e-29 -9.990e-29 -9.990e-29 -9.990e-29 -9.990e-29 -9.990e-29 -9.990e-29 -9.990e-29 1.2365e-01 -9.990e-29      9.446     13.701    10.4276   999.7229 0.0000e+00
      9.633 -9.990e-29 -9.990e-29 -9.990e-29 -9.990e-29 -9.990e-29 -9.990e-29 -9.990e-29 -9.990e-29 1.2359e-01 -9.990e-29      9.446     13.701    10.4412   999.7216 0.0000e+00
      9.633 -9.990e-29 -9.990e-29 -9.990e-29 -9.990e-29 -9.990e-29 -9.990e-29 -9.990e-29 -9.990e-29 1.2354e-01 -9.990e-29      9.446     13.700    10.4416   999.7216 0.0000e+00
      9.633 -9.990e-29 -9.990e-29 -9.990e-29 -9.990e-29 -9.990e-29 -9.990e-29 -9.990e-29 -9.990e-29 1.2352e-01 -9.990e-29      9.447     13.701    10.4373   999.7220 0.0000e+00
