* Sea-Bird SBE19plus  Data File:
* FileName = C:\DATA\06202019_FCR_50_0001.hex
* Software version 2.8.0.119 SB_Terminal.dll
* Temperature SN = 7809
* Conductivity SN = 7809
* System UpLoad Time = Jun 20 2019 15:43:28
* <ApplicationData>
* <Seaterm232>
* <SoftwareVersion>2.8.0.119</SoftwareVersion>
* <BuildDate>07-Nov-2018</BuildDate>
* </Seaterm232>
* </ApplicationData>
* cast   1 20 Jun 2019 15:10:10 samples 1 to 1019, avg = 1, stop = mag switch
# nquan = 16
# nvalues = 806                         
# units = specified
# name 0 = depFM: Depth [fresh water, m]
# name 1 = dz/dtM: Descent Rate [m/s]
# name 2 = sbeox0Mg/L: Oxygen, SBE 43 [mg/l]
# name 3 = sbeox0PS: Oxygen, SBE 43 [% saturation]
# name 4 = specc: Specific Conductance [uS/cm]
# name 5 = c0uS/cm: Conductivity [uS/cm]
# name 6 = flECO-AFL: Fluorescence, WET Labs ECO-AFL/FL [mg/m^3]
# name 7 = ph: pH
# name 8 = orp: Oxidation Reduction Potential [mV]
# name 9 = par/sat/log: PAR/Logarithmic, Satlantic
# name 10 = turbWETntu0: Turbidity, WET Labs ECO [NTU]
# name 11 = prdM: Pressure, Strain Gauge [db]
# name 12 = prdE: Pressure, Strain Gauge [psi]
# name 13 = tv290C: Temperature [ITS-90, deg C]
# name 14 = density00: Density [density, kg/m^3]
# name 15 = flag:  0.000e+00
# span 0 =     -0.699,      9.520       
# span 1 =     -0.007,      0.202       
# span 2 =    -0.3176,    11.9813       
# span 3 =     -2.815,    142.757       
# span 4 =     -0.002,     71.933       
# span 5 =  -0.002433,  50.366914       
# span 6 =    -0.1449,     4.0710       
# span 7 =     -2.355,     10.282       
# span 8 =  -218.3423,   863.0207       
# span 9 = 1.2342e-01, 3.0011e+02       
# span 10 =    -0.5521,    48.9460      
# span 11 =     -0.686,      9.337      
# span 12 =     -0.994,     13.542      
# span 13 =    10.0024,    24.9013      
# span 14 =   997.0893,   999.7731      
# span 15 = 0.0000e+00, 0.0000e+00      
# interval = seconds: 0.25
# start_time = Jun 20 2019 15:10:10 [Instrument's time stamp, header]
# bad_flag = -9.990e-29
# <Sensors count="9" >
#   <sensor Channel="1" >
#     <!-- Count, Temperature -->
#     <TemperatureSensor SensorID="58" >
#       <SerialNumber>7809</SerialNumber>
#       <CalibrationDate>24-Mar-19</CalibrationDate>
#       <A0>1.21792325e-003</A0>
#       <A1>2.81669265e-004</A1>
#       <A2>-1.60333336e-006</A2>
#       <A3>1.98414625e-007</A3>
#       <Slope>1.00000000</Slope>
#       <Offset>0.0000</Offset>
#     </TemperatureSensor>
#   </sensor>
#   <sensor Channel="2" >
#     <!-- Frequency 0, Conductivity -->
#     <ConductivitySensor SensorID="3" >
#       <SerialNumber>7809</SerialNumber>
#       <CalibrationDate>24-Mar-19</CalibrationDate>
#       <UseG_J>1</UseG_J>
#       <!-- Cell const and series R are applicable only for wide range sensors. -->
#       <SeriesR>0.0000</SeriesR>
#       <CellConst>2000.0000</CellConst>
#       <ConductivityType>0</ConductivityType>
#       <Coefficients equation="0" >
#         <A>0.00000000e+000</A>
#         <B>0.00000000e+000</B>
#         <C>0.00000000e+000</C>
#         <D>0.00000000e+000</D>
#         <M>0.0</M>
#         <CPcor>-9.57000000e-008</CPcor>
#       </Coefficients>
#       <Coefficients equation="1" >
#         <G>-1.00589325e+000</G>
#         <H>1.26816302e-001</H>
#         <I>-1.51560448e-004</I>
#         <J>2.67137274e-005</J>
#         <CPcor>-9.57000000e-008</CPcor>
#         <CTcor>3.2500e-006</CTcor>
#         <!-- WBOTC not applicable unless ConductivityType = 1. -->
#         <WBOTC>0.00000000e+000</WBOTC>
#       </Coefficients>
#       <Slope>1.00000000</Slope>
#       <Offset>0.00000</Offset>
#     </ConductivitySensor>
#   </sensor>
#   <sensor Channel="3" >
#     <!-- Count, Pressure, Strain Gauge -->
#     <PressureSensor SensorID="46" >
#       <SerialNumber>7809</SerialNumber>
#       <CalibrationDate>11-Mar-19</CalibrationDate>
#       <PA0>4.56561833e-002</PA0>
#       <PA1>4.85095118e-004</PA1>
#       <PA2>-2.88327090e-012</PA2>
#       <PTEMPA0>-5.48784562e+001</PTEMPA0>
#       <PTEMPA1>5.53756816e+001</PTEMPA1>
#       <PTEMPA2>-5.86727098e-001</PTEMPA2>
#       <PTCA0>5.25246745e+005</PTCA0>
#       <PTCA1>1.22304214e+001</PTCA1>
#       <PTCA2>-3.56745036e-001</PTCA2>
#       <PTCB0>2.51668750e+001</PTCB0>
#       <PTCB1>3.75000000e-004</PTCB1>
#       <PTCB2>0.00000000e+000</PTCB2>
#       <Offset>0.000000</Offset>
#     </PressureSensor>
#   </sensor>
#   <sensor Channel="4" >
#     <!-- A/D voltage 0, Oxygen, SBE 43 -->
#     <OxygenSensor SensorID="38" >
#       <SerialNumber>0434</SerialNumber>
#       <CalibrationDate>13-Apr-19</CalibrationDate>
#       <Use2007Equation>1</Use2007Equation>
#       <CalibrationCoefficients equation="0" >
#         <!-- Coefficients for Owens-Millard equation. -->
#         <Boc>0.0000</Boc>
#         <Soc>0.0000e+000</Soc>
#         <offset>0.0000</offset>
#         <Pcor>0.00e+000</Pcor>
#         <Tcor>0.0000</Tcor>
#         <Tau>0.0</Tau>
#       </CalibrationCoefficients>
#       <CalibrationCoefficients equation="1" >
#         <!-- Coefficients for Sea-Bird equation - SBE calibration in 2007 and later. -->
#         <Soc>4.2007e-001</Soc>
#         <offset>-0.6109</offset>
#         <A>-4.3656e-003</A>
#         <B> 1.7017e-004</B>
#         <C>-2.5341e-006</C>
#         <D0> 2.5826e+000</D0>
#         <D1> 1.92634e-004</D1>
#         <D2>-4.64803e-002</D2>
#         <E> 3.6000e-002</E>
#         <Tau20> 1.1800</Tau20>
#         <H1>-3.3000e-002</H1>
#         <H2> 5.0000e+003</H2>
#         <H3> 1.4500e+003</H3>
#       </CalibrationCoefficients>
#     </OxygenSensor>
#   </sensor>
#   <sensor Channel="5" >
#     <!-- A/D voltage 1, PAR/Logarithmic, Satlantic -->
#     <PARLog_SatlanticSensor SensorID="76" >
#       <SerialNumber>1122</SerialNumber>
#       <CalibrationDate>08-May-2019</CalibrationDate>
#       <a0>9.7456e-001</a0>
#       <a1>8.1640e-001</a1>
#       <Im>1.3589e+000</Im>
#       <Multiplier>1.0000e+000</Multiplier>
#     </PARLog_SatlanticSensor>
#   </sensor>
#   <sensor Channel="6" >
#     <!-- A/D voltage 2, pH -->
#     <pH_Sensor SensorID="43" >
#       <SerialNumber>0363</SerialNumber>
#       <CalibrationDate>15-Apr-19</CalibrationDate>
#       <Slope>4.5952</Slope>
#       <Offset>2.5370</Offset>
#     </pH_Sensor>
#   </sensor>
#   <sensor Channel="7" >
#     <!-- A/D voltage 3, Oxidation Reduction Potential -->
#     <OxidationReductionPotentialSensor SensorID="41" >
#       <SerialNumber>0363</SerialNumber>
#       <CalibrationDate>15-Apr-19</CalibrationDate>
#       <B>2.499480</B>
#       <M>-0.496195</M>
#       <Offset>0.0</Offset>
#     </OxidationReductionPotentialSensor>
#   </sensor>
#   <sensor Channel="8" >
#     <!-- A/D voltage 4, Fluorometer, WET Labs ECO-AFL/FL -->
#     <FluoroWetlabECO_AFL_FL_Sensor SensorID="20" >
#       <SerialNumber>FLNTURT-2496</SerialNumber>
#       <CalibrationDate>08-May-2019</CalibrationDate>
#       <ScaleFactor>5.00000000e+001</ScaleFactor>
#       <!-- Dark output -->
#       <Vblank>0.0550</Vblank>
#     </FluoroWetlabECO_AFL_FL_Sensor>
#   </sensor>
#   <sensor Channel="9" >
#     <!-- A/D voltage 5, Turbidity Meter, WET Labs, ECO-NTU -->
#     <TurbidityMeter SensorID="67" >
#       <SerialNumber>FLNTURT-2496</SerialNumber>
#       <CalibrationDate>08-May-2019</CalibrationDate>
#       <ScaleFactor>189.000000</ScaleFactor>
#       <!-- Dark output -->
#       <DarkVoltage>0.071000</DarkVoltage>
#     </TurbidityMeter>
#   </sensor>
# </Sensors>
# datcnv_date = Jun 20 2019 15:43:58, 7.26.7.129 [datcnv_vars = 15]
# datcnv_in = C:\DATA\06202019_FCR_50_0001.hex C:\DATA\SBE19plusV2_7809.xmlcon
# datcnv_skipover = 0
# datcnv_ox_hysteresis_correction = yes
# datcnv_ox_tau_correction = yes
# filter_date = Jun 20 2019 15:49:27, 7.26.7.129
# filter_in = C:\DATA\06202019_FCR_50_0001.cnv
# filter_low_pass_tc_A = 0.030
# filter_low_pass_tc_B = 0.150
# filter_low_pass_A_vars = prdM prdE tv290C density00
# filter_low_pass_B_vars = depFM dz/dtM sbeox0Mg/L sbeox0PS specc c0uS/cm flECO-AFL ph orp par/sat/log turbWETntu0
# alignctd_date = Jun 20 2019 15:49:56, 7.26.7.129
# alignctd_in = C:\DATA\06202019_FCR_50_0001.cnv
# alignctd_adv = dz/dtM 1.000, sbeox0Mg/L 1.000, sbeox0PS 1.000, specc 1.000, c0uS/cm 1.000, flECO-AFL 1.000, ph 1.000, orp 1.000, turbWETntu0 1.000                                                                                 
# file_type = ascii
*END*
     -0.698 5.8473e-22     8.4068    100.431      0.386   0.380294    -0.1449     -2.355  -218.3423 3.0011e+02    -0.5521     -0.685     -0.993    24.3720   997.2034 0.0000e+00
     -0.698 6.4320e-21     8.4070    100.410      0.435   0.428340    -0.1383     -2.355   -22.0092 2.9075e+02    -0.4913     -0.685     -0.994    24.3519   997.2154 0.0000e+00
     -0.698 7.0752e-20     8.4061    100.396      0.356   0.351029    -0.1275     -2.355   152.1919 2.8095e+02    -0.4602     -0.684     -0.993    24.3323   997.2218 0.0000e+00
     -0.698 7.7828e-19     8.4053    100.400      0.145   0.142480    -0.1275     -2.355   310.8940 2.7215e+02    -0.4707     -0.685     -0.993    24.3170   997.2245 0.0000e+00
     -0.698 8.5610e-18     8.4040    100.402     -0.002  -0.002433    -0.1294     -2.354   460.8498 2.6193e+02    -0.4545     -0.685     -0.993    24.2966   997.2306 0.0000e+00
     -0.699 9.4171e-17     8.4026    100.407      0.185   0.182815    -0.1240     -2.354   605.9605 2.5348e+02    -0.4282     -0.686     -0.994    24.2810   997.2333 0.0000e+00
     -0.699 1.0359e-15     8.4021    100.419      0.360   0.354878    -0.1225     -2.354   734.7316 2.4953e+02    -0.4473     -0.685     -0.994    24.2810   997.2350 0.0000e+00
     -0.699 1.1395e-14     8.4018    100.431      0.308   0.303983    -0.1288     -2.353   818.6818 2.4727e+02    -0.4886     -0.685     -0.994    24.2915   997.2300 0.0000e+00
     -0.699 1.2534e-13     8.4014    100.440      0.268   0.264392    -0.1308     -2.353   850.2544 2.4647e+02    -0.5017     -0.685     -0.993    24.3025   997.2215 0.0000e+00
     -0.699 1.3788e-12     8.4012    100.448      0.324   0.319697    -0.1298     -2.353   858.0112 2.4512e+02    -0.5072     -0.685     -0.994    24.3130   997.2246 0.0000e+00
     -0.699 1.5166e-11     8.4022    100.468      0.408   0.402442    -0.1343     -2.353   860.9319 2.3927e+02    -0.5224     -0.684     -0.993    24.3227   997.2245 0.0000e+00
     -0.699 1.6683e-10     8.4025    100.477      0.447   0.441204    -0.1416     -2.353   861.3056 2.2294e+02    -0.5215     -0.685     -0.994    24.3309   997.2211 0.0000e+00
     -0.699 1.8351e-09     8.4003    100.452      0.542   0.534934    -0.1405     -2.353   861.3242 1.9421e+02    -0.4965     -0.685     -0.993    24.3378   997.2201 0.0000e+00
     -0.699 2.0186e-08     8.3985    100.423      0.722   0.712050    -0.1375     -2.353   861.4150 1.6351e+02    -0.4827     -0.685     -0.994    24.3435   997.2183 0.0000e+00
     -0.698 2.2205e-07     8.4005    100.436      0.563   0.555210    -0.1406     -2.353   862.1460 1.4515e+02    -0.4853     -0.685     -0.993    24.3474   997.2173 0.0000e+00
     -0.698      0.000     8.4032    100.462      0.161   0.159150    -0.1342     -2.353   863.0207 1.4380e+02    -0.4950     -0.684     -0.993    24.3511   997.2168 0.0000e+00
     -0.698      0.000     8.4022    100.455      0.106   0.104949    -0.1203     -2.349   861.4935 1.4919e+02    -0.5019     -0.684     -0.993    24.3536   997.2154 0.0000e+00
     -0.698      0.000     8.4006    100.441      0.412   0.406777    -0.1115     -2.310   843.2509 1.5259e+02    -0.5035     -0.684     -0.993    24.3488   997.2179 0.0000e+00
     -0.698      0.003     8.3996    100.435      2.894   2.858185    -0.1148     -1.876   647.3554 1.5250e+02    -0.5152     -0.684     -0.992    24.3404   997.2178 0.0000e+00
     -0.698      0.016     8.3964    100.436     11.504  11.367502    -0.1254     -0.051   326.4349 1.5272e+02    -0.5117     -0.684     -0.993    24.3381   997.2126 0.0000e+00
     -0.698      0.043     8.3864    100.450     23.858  23.606820    -0.1270      3.138   214.7100 1.5938e+02    -0.4936     -0.684     -0.992    24.3411   997.2177 0.0000e+00
     -0.697      0.082     8.3694    100.452     31.716  31.439419    -0.1258      6.016   254.7185 1.7061e+02    -0.4928     -0.683     -0.991    24.3450   997.2192 0.0000e+00
     -0.687      0.124     8.3529    100.435     33.744  33.508433    -0.1282      7.808   269.7618 1.8264e+02    -0.5018     -0.685     -0.993    24.3440   997.2178 0.0000e+00
     -0.648      0.161     8.3419    100.428     33.967  33.775129    -0.1028      8.883   276.5723 1.9552e+02    -0.4062     -0.652     -0.945    24.3443   997.2202 0.0000e+00
     -0.577      0.186     8.3362    100.459     33.995  33.839068     0.2409      9.512   278.3852 2.0763e+02     0.7615     -0.564     -0.817    24.4169   997.2068 0.0000e+00
     -0.503      0.200     8.3371    100.551     33.963  33.837324     0.8723      9.861   276.6242 2.1685e+02     2.9003     -0.487     -0.706    24.5581   997.1744 0.0000e+00
     -0.444      0.202     8.3471    100.731     33.921  33.817551     1.2107     10.056   274.3810 2.2299e+02     4.0861     -0.431     -0.625    24.6569   997.1493 0.0000e+00
     -0.400      0.194     8.3668    101.012     33.879  33.790420     1.2465     10.172   274.3210 2.2634e+02     4.1529     -0.386     -0.560    24.7123   997.1357 0.0000e+00
     -0.367      0.183     8.3973    101.407     33.841  33.763145     1.3572     10.239   275.8135 2.2883e+02     3.5115     -0.362     -0.524    24.7675   997.1217 0.0000e+00
     -0.331      0.178     8.4399    101.940     33.813  33.741645     1.5605     10.271   276.5087 2.3252e+02     2.3280     -0.330     -0.479    24.8129   997.1104 0.0000e+00
     -0.284      0.179     8.4917    102.579     33.788  33.720856     1.6758     10.282   276.3601 2.3674e+02     1.6744     -0.281     -0.407    24.8443   997.1026 0.0000e+00
     -0.231      0.187     8.5471    103.257     33.766  33.702183     1.6849     10.281   277.1139 2.3993e+02     1.6059     -0.226     -0.328    24.8662   997.0972 0.0000e+00
     -0.178      0.195     8.6038    103.945     33.769  33.706268     1.6960     10.267   278.0523 2.3381e+02     1.5979     -0.173     -0.250    24.8804   997.0937 0.0000e+00
     -0.129      0.193     8.6593    104.614     33.770  33.706777     1.7238     10.247   278.3278 2.0878e+02     1.6105     -0.126     -0.182    24.8886   997.0919 0.0000e+00
     -0.079      0.181     8.7081    105.198     33.774  33.708335     1.7352     10.227   278.5509 1.7556e+02     1.5949     -0.081     -0.117    24.8956   997.0904 0.0000e+00
     -0.026      0.162     8.7447    105.628     33.794  33.725104     1.7378     10.205   278.4270 1.5587e+02     1.5396     -0.024     -0.035    24.9006   997.0893 0.0000e+00
      0.021      0.142     8.7618    105.803     33.799  33.719136     1.7468     10.181   277.7768 1.5096e+02     1.5319      0.030      0.043    24.9013   997.0894 0.0000e+00
      0.050      0.121     8.7584    105.708     33.799  33.699619     1.7473     10.154   276.9708 1.4915e+02     1.5678      0.053      0.078    24.9001   997.0897 0.0000e+00
      0.068      0.098     8.7425    105.452     33.801  33.679496     1.7452     10.128   276.1664 1.4841e+02     1.6129      0.064      0.093    24.8989   997.0901 0.0000e+00
      0.088      0.075     8.7040    104.922     33.811  33.666184     1.7467     10.105   275.9669 1.4846e+02     1.6192      0.086      0.124    24.8950   997.0912 0.0000e+00
      0.108      0.057     8.6253    103.916     33.831  33.665554     1.7490     10.084   276.1068 1.4807e+02     1.5777      0.109      0.157    24.8796   997.0953 0.0000e+00
      0.122      0.045     8.5057    102.428     33.854  33.671854     1.7640     10.066   275.9651 1.4738e+02     1.5707      0.123      0.178    24.8495   997.1030 0.0000e+00
      0.129      0.035     8.3554    100.585     33.873  33.678864     1.7978     10.051   275.7157 1.4685e+02     1.5996      0.128      0.185    24.8134   997.1122 0.0000e+00
      0.133      0.026     8.2001     98.696     33.888  33.686837     1.8193     10.040   275.3297 1.4675e+02     1.5991      0.130      0.189    24.7788   997.1210 0.0000e+00
      0.136      0.019     8.0715     97.141     33.909  33.704779     1.8164     10.032   275.0828 1.4464e+02     1.5644      0.134      0.194    24.7485   997.1288 0.0000e+00
      0.141      0.015     7.9921     96.180     33.912  33.705405     1.8239     10.024   275.1389 1.4198e+02     1.5079      0.138      0.200    24.7233   997.1352 0.0000e+00
      0.145      0.014     7.9669     95.868     33.904  33.694398     1.8487     10.014   275.0629 1.4294e+02     1.4078      0.142      0.207    24.7047   997.1398 0.0000e+00
      0.147      0.014     7.9836     96.059     33.912  33.698618     1.8647      9.999   274.8523 1.4502e+02     1.3368      0.145      0.210    24.6953   997.1422 0.0000e+00
      0.150      0.013     8.0240     96.539     33.908  33.692963     1.8704      9.984   274.7431 1.4521e+02     1.3380      0.146      0.212    24.6935   997.1428 0.0000e+00
      0.154      0.012     8.0632     97.015     33.903  33.689483     1.8571      9.972   274.6886 1.4507e+02     1.3569      0.151      0.218    24.6915   997.1432 0.0000e+00
      0.159      0.010     8.0819     97.257     33.927  33.720001     1.8247      9.961   274.5379 1.4468e+02     1.3690      0.157      0.228    24.6855   997.1447 0.0000e+00
      0.162      0.008     8.0702     97.145     33.941  33.744655     1.8078      9.950   274.2118 1.4434e+02     1.3538      0.160      0.232    24.6786   997.1466 0.0000e+00
      0.163      0.006     8.0186     96.558     33.916  33.733740     1.8091      9.939   273.7571 1.4347e+02     1.3368      0.160      0.231    24.6743   997.1477 0.0000e+00
      0.163      0.003     7.9219     95.427     33.885  33.714965     1.8149      9.927   273.3413 1.4132e+02     1.3263      0.160      0.232    24.6760   997.1472 0.0000e+00
      0.163      0.001     7.7889     93.852     33.867  33.708059     1.8164      9.913   273.1426 1.3998e+02     1.2923      0.159      0.231    24.6858   997.1448 0.0000e+00
      0.163      0.000     7.6496     92.195     33.865  33.713719     1.8101      9.901   273.0758 1.3917e+02     1.2858      0.160      0.230    24.7032   997.1404 0.0000e+00
      0.162      0.000     7.5424     90.918     33.866  33.719950     1.8081      9.887   272.9635 1.3877e+02     1.3473      0.159      0.231    24.7244   997.1350 0.0000e+00
      0.162      0.000     7.4985     90.398     33.862  33.719939     1.8101      9.873   272.8165 1.3919e+02     1.4454      0.159      0.231    24.7437   997.1301 0.0000e+00
      0.163      0.001     7.5309     90.796     33.852  33.713591     1.8079      9.859   272.7614 1.3902e+02     1.5213      0.160      0.232    24.7598   997.1260 0.0000e+00
      0.163      0.001     7.6297     91.993     33.842  33.706673     1.8075      9.845   272.7276 1.3920e+02     1.5443      0.160      0.232    24.7722   997.1228 0.0000e+00
      0.163      0.001     7.7722     93.717     33.833  33.699761     1.8147      9.833   272.6663 1.4053e+02     1.5271      0.160      0.232    24.7801   997.1208 0.0000e+00
      0.163      0.002     7.9367     95.707     33.824  33.693481     1.8603      9.823   272.7950 1.4040e+02     1.4441      0.160      0.232    24.7855   997.1194 0.0000e+00
      0.164      0.003     8.1020     97.705     33.823  33.694200     1.9424      9.814   273.1651 1.3732e+02     1.3276      0.161      0.233    24.7902   997.1183 0.0000e+00
      0.165      0.003     8.2453     99.440     33.835  33.708460     1.9840      9.807   273.6131 1.3414e+02     1.2652      0.161      0.234    24.7937   997.1174 0.0000e+00
      0.166      0.003     8.3533    100.749     33.863  33.738980     1.9811      9.800   273.9966 1.3336e+02     1.2475      0.163      0.236    24.7967   997.1166 0.0000e+00
      0.168      0.002     8.4249    101.621     33.867  33.745903     1.9768      9.791   274.2737 1.3356e+02     1.2443      0.165      0.239    24.7996   997.1159 0.0000e+00
      0.168      0.002     8.4619    102.074     33.847  33.728709     1.9755      9.781   274.5547 1.3430e+02     1.3253      0.165      0.239    24.8025   997.1152 0.0000e+00
      0.167      0.001     8.4673    102.148     33.837  33.721474     1.9833      9.769   274.8130 1.3651e+02     1.4730      0.164      0.238    24.8060   997.1143 0.0000e+00
      0.167      0.001     8.4502    101.951     33.834  33.721899     1.9920      9.758   274.8146 1.3692e+02     1.5558      0.164      0.238    24.8104   997.1132 0.0000e+00
      0.167      0.000     8.4205    101.602     33.843  33.733853     1.9852      9.747   274.7464 1.3536e+02     1.5716      0.164      0.238    24.8147   997.1121 0.0000e+00
      0.168 1.8783e-08     8.3886    101.224     33.846  33.739083     1.9626      9.736   275.1074 1.3443e+02     1.5330      0.165      0.239    24.8179   997.1112 0.0000e+00
      0.168 2.0661e-07     8.3622    100.913     33.826  33.721670     1.9355      9.726   275.4795 1.3334e+02     1.4495      0.165      0.239    24.8221   997.1101 0.0000e+00
      0.168 2.0664e-07     8.3402    100.652     33.817  33.713707     1.9175      9.719   275.2020 1.3326e+02     1.3819      0.165      0.239    24.8278   997.1087 0.0000e+00
      0.168 1.9122e-08     8.3175    100.382     33.808  33.706272     1.9181      9.713   274.5908 1.3414e+02     1.3381      0.165      0.239    24.8330   997.1074 0.0000e+00
      0.168 5.4328e-09     8.2935    100.096     33.795  33.695243     1.9261      9.706   273.8549 1.3364e+02     1.3135      0.165      0.240    24.8369   997.1064 0.0000e+00
      0.168 4.1133e-08     8.2681     99.793     33.806  33.707283     1.9267      9.700   273.1011 1.3252e+02     1.3129      0.164      0.239    24.8401   997.1056 0.0000e+00
      0.168 4.5077e-07     8.2390     99.444     33.822  33.724919     1.9261      9.692   273.0475 1.3224e+02     1.3306      0.165      0.238    24.8426   997.1050 0.0000e+00
      0.168      0.000     8.2065     99.055     33.814  33.718091     1.9263      9.685   273.4650 1.3205e+02     1.3315      0.165      0.239    24.8449   997.1044 0.0000e+00
      0.168      0.000     8.1709     98.628     33.784  33.688196     1.9290      9.677   273.4182 1.3220e+02     1.3572      0.165      0.240    24.8470   997.1038 0.0000e+00
      0.168      0.001     8.1314     98.152     33.776  33.680771     1.9334      9.669   273.0839 1.3326e+02     1.4439      0.165      0.239    24.8484   997.1035 0.0000e+00
      0.168      0.002     8.0917     97.676     33.786  33.691791     1.9369      9.659   272.6057 1.3329e+02     1.4956      0.165      0.240    24.8499   997.1032 0.0000e+00
      0.168      0.003     8.0552     97.237     33.788  33.694505     1.9363      9.649   272.1100 1.3277e+02     1.4905      0.165      0.239    24.8517   997.1026 0.0000e+00
      0.169      0.004     8.0190     96.802     33.806  33.713580     1.9428      9.640   272.7690 1.3289e+02     1.4473      0.166      0.240    24.8532   997.1022 0.0000e+00
      0.171      0.004     7.9806     96.341     33.824  33.732049     1.9726      9.633   274.2933 1.3265e+02     1.3665      0.168      0.243    24.8539   997.1021 0.0000e+00
      0.173      0.004     7.9418     95.874     33.819  33.727425     1.9933      9.627   274.9671 1.3246e+02     1.3335      0.169      0.245    24.8548   997.1019 0.0000e+00
      0.174      0.004     7.9043     95.422     33.812  33.721127     1.9844      9.622   274.6348 1.3259e+02     1.3426      0.170      0.247    24.8562   997.1015 0.0000e+00
      0.175      0.004     7.8698     95.005     33.810  33.719358     1.9697      9.617   274.0616 1.3274e+02     1.3133      0.172      0.249    24.8578   997.1011 0.0000e+00
      0.176      0.003     7.8397     94.639     33.797  33.706043     1.9280      9.610   273.8872 1.3358e+02     1.3073      0.173      0.250    24.8590   997.1008 0.0000e+00
      0.176      0.002     7.8117     94.299     33.779  33.687062     1.8614      9.602   274.6771 1.3455e+02     1.3676      0.173      0.251    24.8594   997.1007 0.0000e+00
      0.176      0.001     7.7812     93.925     33.774  33.680242     1.8329      9.595   276.0406 1.3492e+02     1.3871      0.173      0.250    24.8599   997.1006 0.0000e+00
      0.176      0.000     7.7457     93.493     33.783  33.687050     1.8258      9.589   276.8644 1.3512e+02     1.3465      0.173      0.251    24.8601   997.1005 0.0000e+00
      0.176 2.6715e-17     7.7039     92.988     33.803  33.705918     1.8358      9.584   276.8086 1.3450e+02     1.4007      0.173      0.251    24.8589   997.1008 0.0000e+00
      0.176 2.9387e-16     7.6532     92.376     33.815  33.717975     1.8853      9.579   276.3120 1.3355e+02     1.5513      0.173      0.251    24.8566   997.1014 0.0000e+00
      0.176 3.2325e-15     7.5958     91.681     33.804  33.705905     1.9209      9.573   275.8505 1.3418e+02     1.5936      0.173      0.250    24.8538   997.1021 0.0000e+00
      0.177 3.5558e-14     7.5341     90.935     33.785  33.686909     1.9280      9.568   275.4450 1.3558e+02     1.5521      0.173      0.251    24.8512   997.1028 0.0000e+00
      0.177 3.9114e-13     7.4700     90.158     33.778  33.678686     1.9190      9.563   275.1085 1.3689e+02     1.5081      0.174      0.252    24.8505   997.1030 0.0000e+00
      0.177 4.3025e-12     7.4091     89.419     33.771  33.669944     1.8989      9.558   274.9651 1.3827e+02     1.4226      0.174      0.252    24.8507   997.1029 0.0000e+00
      0.177 4.7328e-11     7.3534     88.743     33.747  33.644659     1.8926      9.552   274.8291 1.3803e+02     1.3711      0.174      0.252    24.8507   997.1029 0.0000e+00
      0.177 5.2060e-10     7.3008     88.105     33.730  33.626820     1.8948      9.545   274.7552 1.3587e+02     1.3435      0.174      0.252    24.8494   997.1032 0.0000e+00
      0.177 5.7266e-09     7.2497     87.486     33.750  33.644648     1.9001      9.538   274.6738 1.3491e+02     1.3184      0.174      0.252    24.8472   997.1038 0.0000e+00
      0.177 6.2993e-08     7.1977     86.856     33.776  33.669818     1.9131      9.529   274.0171 1.3590e+02     1.3293      0.174      0.252    24.8449   997.1044 0.0000e+00
      0.177 -4.103e-08     7.1429     86.193     33.784  33.677289     1.9222      9.520   273.2688 1.3610e+02     1.3440      0.174      0.253    24.8426   997.1050 0.0000e+00
      0.177 -1.077e-07     7.0877     85.524     33.779  33.671519     1.9315      9.511   273.4548 1.3615e+02     1.3652      0.173      0.252    24.8407   997.1054 0.0000e+00
      0.177 -9.793e-09     7.0330     84.863     33.772  33.663527     1.9566      9.504   273.9437 1.3697e+02     1.4222      0.174      0.251    24.8390   997.1059 0.0000e+00
      0.177 -8.625e-10     6.9781     84.200     33.753  33.644112     1.9826      9.498   274.2756 1.3685e+02     1.5086      0.174      0.252    24.8373   997.1063 0.0000e+00
      0.178 2.2696e-10     6.9229     83.532     33.736  33.627168     1.9947      9.493   274.7141 1.3683e+02     1.5584      0.174      0.253    24.8360   997.1067 0.0000e+00
      0.178 3.3797e-09     6.8671     82.857     33.758  33.649048     1.9994      9.488   274.3425 1.3788e+02     1.5655      0.174      0.253    24.8350   997.1069 0.0000e+00
      0.178 3.7257e-08     6.8117     82.187     33.765  33.654802     2.0049      9.482   273.3099 1.3893e+02     1.5613      0.174      0.253    24.8340   997.1071 0.0000e+00
      0.177 4.0984e-07     6.7578     81.536     33.744  33.633281     2.1646      9.477   273.0689 1.3895e+02     1.5403      0.174      0.252    24.8330   997.1074 0.0000e+00
      0.177      0.000     6.7067     80.919     33.754  33.642682     2.4731      9.472   273.6656 1.3794e+02     1.5085      0.174      0.252    24.8323   997.1076 0.0000e+00
      0.178      0.000     6.6583     80.334     33.753  33.641551     2.6404      9.467   274.4159 1.3860e+02     1.5045      0.175      0.253    24.8316   997.1078 0.0000e+00
      0.178      0.001     6.6098     79.748     33.732  33.619599     2.6441      9.462   273.8809 1.4099e+02     1.5572      0.174      0.253    24.8309   997.1080 0.0000e+00
      0.178      0.001     6.5608     79.155     33.744  33.631118     2.4570      9.457   271.9294 1.4217e+02     1.5884      0.174      0.253    24.8300   997.1082 0.0000e+00
      0.178      0.001     6.5156     78.609     33.767  33.653895     2.0949      9.453   270.6959 1.4211e+02     1.5548      0.175      0.254    24.8294   997.1084 0.0000e+00
      0.179      0.001     6.4750     78.118     33.754  33.641147     1.8908      9.450   270.4959 1.4174e+02     1.5438      0.175      0.254    24.8288   997.1085 0.0000e+00
      0.179      0.002     6.4353     77.639     33.718  33.603902     1.8786      9.447   270.7162 1.4134e+02     1.5862      0.175      0.254    24.8280   997.1087 0.0000e+00
      0.179      0.002     6.3963     77.166     33.699  33.584342     1.8876      9.445   271.2943 1.4018e+02     1.6083      0.176      0.255    24.8272   997.1089 0.0000e+00
      0.180      0.001     6.3571     76.692     33.710  33.595048     1.8858      9.441   271.3770 1.3794e+02     1.5820      0.177      0.256    24.8266   997.1090 0.0000e+00
      0.181      0.001     6.3162     76.199     33.721  33.606416     1.8836      9.436   270.8556 1.3694e+02     1.5627      0.177      0.257    24.8260   997.1092 0.0000e+00
      0.181      0.001     6.2755     75.707     33.710  33.594863     1.8871      9.431   270.5820 1.3784e+02     1.5721      0.177      0.257    24.8253   997.1094 0.0000e+00
      0.181      0.000     6.2355     75.224     33.698  33.582283     1.9277      9.426   270.6503 1.3872e+02     1.5650      0.177      0.257    24.8245   997.1096 0.0000e+00
      0.181 2.5714e-08     6.1955     74.740     33.697  33.581243     2.0013      9.422   270.7356 1.3969e+02     1.5418      0.177      0.257    24.8241   997.1097 0.0000e+00
      0.180 2.8286e-07     6.1563     74.267     33.699  33.582282     2.0401      9.418   270.7524 1.3986e+02     1.5209      0.177      0.257    24.8234   997.1099 0.0000e+00
      0.180      0.000     6.1177     73.801     33.712  33.594851     2.0501      9.413   271.0253 1.3950e+02     1.5095      0.177      0.256    24.8227   997.1101 0.0000e+00
      0.180      0.000     6.0793     73.336     33.723  33.606283     2.0441      9.409   271.3681 1.4071e+02     1.5349      0.177      0.257    24.8224   997.1101 0.0000e+00
      0.180      0.000     6.0434     72.903     33.711  33.593579     2.0200      9.405   271.1973 1.4134e+02     1.5658      0.177      0.257    24.8217   997.1103 0.0000e+00
      0.181      0.001     6.0108     72.509     33.686  33.568175     2.0012      9.402   270.7674 1.4061e+02     1.5548      0.177      0.257    24.8210   997.1105 0.0000e+00
      0.181      0.003     5.9799     72.136     33.671  33.552974     1.9902      9.397   270.4723 1.3970e+02     1.5335      0.178      0.258    24.8205   997.1106 0.0000e+00
      0.181      0.003     5.9513     71.790     33.656  33.536716     1.9818      9.392   270.3823 1.3883e+02     1.5373      0.178      0.258    24.8200   997.1107 0.0000e+00
      0.182      0.001     5.9244     71.465     33.617  33.498524     1.9515      9.384   270.7970 1.3873e+02     1.5026      0.178      0.258    24.8196   997.1108 0.0000e+00
      0.184     -0.002     5.8982     71.149     33.590  33.471976     1.9025      9.379   271.2718 1.3936e+02     1.4095      0.180      0.261    24.8192   997.1109 0.0000e+00
      0.186     -0.005     5.8755     70.874     33.588  33.469574     1.8746      9.372   270.7878 1.3954e+02     1.3284      0.183      0.265    24.8187   997.1111 0.0000e+00
      0.185     -0.007     5.8592     70.677     33.588  33.469479     1.8744      9.354   269.8490 1.3863e+02     1.2757      0.184      0.266    24.8181   997.1112 0.0000e+00
      0.179     -0.007     5.8469     70.527     33.590  33.470833     1.9341      9.334   268.8696 1.3830e+02     1.2645      0.175      0.256    24.8177   997.1113 0.0000e+00
      0.172     -0.004     5.8366     70.402     33.606  33.485937     2.0412      9.320   267.8940 1.3886e+02     1.2913      0.165      0.240    24.8176   997.1113 0.0000e+00
      0.170      0.004     5.8319     70.344     33.646  33.525168     2.0948      9.310   268.0334 1.3888e+02     1.3378      0.166      0.241    24.8176   997.1113 0.0000e+00
      0.171      0.014     5.8389     70.427     33.686  33.564399     2.0969      9.299   268.8347 1.3888e+02     1.3670      0.168      0.244    24.8174   997.1113 0.0000e+00
      0.176      0.025     5.8586     70.664     33.702  33.579503     2.0932      9.291   268.8926 1.3842e+02     1.4157      0.170      0.245    24.8165   997.1115 0.0000e+00
      0.187      0.036     5.8875     71.011     33.704  33.580867     2.0847      9.287   268.6461 1.3623e+02     1.5336      0.182      0.264    24.8153   997.1119 0.0000e+00
      0.201      0.045     5.9246     71.458     33.704  33.580888     2.0797      9.282   268.2646 1.3364e+02     1.5801      0.198      0.288    24.8144   997.1122 0.0000e+00
      0.212      0.050     5.9671     71.968     33.704  33.579755     2.0762      9.277   267.6349 1.3314e+02     1.5511      0.208      0.302    24.8135   997.1125 0.0000e+00
      0.226      0.052     6.0074     72.452     33.692  33.567169     2.0684      9.266   267.8296 1.3411e+02     1.5433      0.220      0.319    24.8124   997.1128 0.0000e+00
      0.242      0.050     6.0376     72.815     33.682  33.555629     2.0643      9.250   268.5551 1.3435e+02     1.5515      0.238      0.347    24.8117   997.1131 0.0000e+00
      0.257      0.048     6.0514     72.981     33.694  33.567146     2.0696      9.240   268.5770 1.3307e+02     1.5525      0.253      0.368    24.8109   997.1134 0.0000e+00
      0.268      0.046     6.0491     72.953     33.706  33.579505     2.0624      9.232   268.0079 1.3069e+02     1.5554      0.263      0.382    24.8091   997.1139 0.0000e+00
      0.278      0.044     6.0378     72.817     33.705  33.578131     2.0119      9.221   267.4382 1.2907e+02     1.6188      0.274      0.398    24.8075   997.1143 0.0000e+00
      0.287      0.041     6.0221     72.627     33.677  33.550533     1.9539      9.205   267.2821 1.2887e+02     1.6958      0.280      0.405    24.8066   997.1146 0.0000e+00
      0.297      0.037     6.0007     72.368     33.627  33.499667     1.9415      9.184   267.6691 1.2834e+02     1.7334      0.289      0.419    24.8063   997.1147 0.0000e+00
      0.310      0.032     5.9754     72.063     33.598  33.470822     1.9489      9.164   268.2453 1.2677e+02     1.7786      0.306      0.443    24.8061   997.1148 0.0000e+00
      0.320      0.026     5.9506     71.764     33.583  33.455616     1.9476      9.151   268.5698 1.2598e+02     1.7841      0.315      0.457    24.8059   997.1149 0.0000e+00
      0.325      0.020     5.9285     71.498     33.569  33.442734     1.9257      9.149   268.5813 1.2660e+02     1.6675      0.320      0.465    24.8057   997.1150 0.0000e+00
      0.328      0.015     5.9098     71.272     33.568  33.441996     1.8923      9.155   268.4704 1.2683e+02     1.5493      0.322      0.467    24.8053   997.1151 0.0000e+00
      0.328      0.012     5.8930     71.069     33.573  33.446696     1.8829      9.165   268.1757 1.2661e+02     1.5352      0.322      0.466    24.8052   997.1151 0.0000e+00
      0.328      0.013     5.8772     70.878     33.627  33.499554     1.8903      9.179   267.3420 1.2756e+02     1.5620      0.321      0.466    24.8050   997.1152 0.0000e+00
      0.330      0.020     5.8677     70.763     33.701  33.573401     1.9207      9.195   266.4772 1.2814e+02     1.6119      0.322      0.468    24.8049   997.1152 0.0000e+00
      0.335      0.030     5.8752     70.854     33.706  33.578017     1.9730      9.206   266.4093 1.2634e+02     1.6797      0.328      0.476    24.8052   997.1151 0.0000e+00
      0.342      0.041     5.9106     71.283     33.682  33.555367     2.0021      9.210   266.6069 1.2369e+02     1.7256      0.335      0.485    24.8050   997.1152 0.0000e+00
      0.353      0.051     5.9750     72.060     33.680  33.553392     2.0040      9.207   266.4572 1.2166e+02     1.7406      0.344      0.497    24.8048   997.1153 0.0000e+00
      0.373      0.056     6.0551     73.027     33.680  33.554139     1.9953      9.203   265.8906 1.2014e+02     1.6647      0.364      0.529    24.8048   997.1155 0.0000e+00
      0.394      0.057     6.1334     73.972     33.690  33.564401     1.9841      9.203   264.9181 1.1894e+02     1.5290      0.387      0.563    24.8046   997.1156 0.0000e+00
      0.411      0.057     6.1950     74.715     33.676  33.550544     1.9806      9.203   264.0766 1.1791e+02     1.5093      0.404      0.587    24.8052   997.1155 0.0000e+00
      0.423      0.054     6.2322     75.165     33.638  33.513515     1.9967      9.194   263.8906 1.1720e+02     1.5564      0.416      0.604    24.8065   997.1152 0.0000e+00
      0.432      0.048     6.2456     75.329     33.621  33.497465     2.0577      9.175   264.0459 1.1638e+02     1.5416      0.423      0.614    24.8071   997.1151 0.0000e+00
      0.443      0.040     6.2352     75.205     33.606  33.483408     2.1371      9.154   264.2332 1.1441e+02     1.5276      0.432      0.627    24.8072   997.1151 0.0000e+00
      0.456      0.033     6.2018     74.803     33.593  33.470478     2.1767      9.139   264.3487 1.1231e+02     1.5508      0.449      0.651    24.8076   997.1151 0.0000e+00
      0.467      0.028     6.1523     74.205     33.591  33.468053     2.1817      9.131   264.0657 1.1190e+02     1.5602      0.461      0.668    24.8090   997.1148 0.0000e+00
      0.472      0.023     6.0959     73.524     33.577  33.454091     2.1537      9.128   263.6501 1.1258e+02     1.5760      0.464      0.672    24.8107   997.1144 0.0000e+00
      0.474      0.017     6.0407     72.858     33.552  33.428592     2.1063      9.132   263.5405 1.1256e+02     1.5772      0.464      0.673    24.8113   997.1142 0.0000e+00
      0.476      0.012     5.9908     72.256     33.537  33.413601     2.0777      9.140   263.6868 1.1167e+02     1.5102      0.467      0.676    24.8114   997.1142 0.0000e+00
      0.480      0.008     5.9464     71.720     33.523  33.399755     2.0675      9.148   263.8693 1.1080e+02     1.4865      0.472      0.684    24.8112   997.1143 0.0000e+00
      0.483      0.006     5.9058     71.230     33.512  33.388101     2.0696      9.153   263.8543 1.1026e+02     1.5194      0.474      0.688    24.8111   997.1143 0.0000e+00
      0.483      0.005     5.8682     70.775     33.524  33.399621     2.1212      9.154   263.5061 1.1038e+02     1.5152      0.474      0.687    24.8113   997.1142 0.0000e+00
      0.483      0.004     5.8337     70.357     33.538  33.412108     2.2233      9.154   262.9289 1.1094e+02     1.5008      0.474      0.687    24.8111   997.1142 0.0000e+00
      0.484      0.002     5.8024     69.978     33.538  33.412159     2.2810      9.153   262.4681 1.1107e+02     1.5102      0.475      0.688    24.8100   997.1146 0.0000e+00
      0.484      0.002     5.7743     69.637     33.527  33.400244     2.2803      9.150   262.1498 1.1074e+02     1.5298      0.475      0.689    24.8087   997.1148 0.0000e+00
      0.485      0.002     5.7483     69.323     33.522  33.394962     2.2061      9.147   261.8343 1.1034e+02     1.5413      0.476      0.690    24.8078   997.1151 0.0000e+00
      0.485      0.002     5.7251     69.041     33.604  33.475218     2.0694      9.145   261.4065 1.0989e+02     1.5508      0.476      0.690    24.8064   997.1156 0.0000e+00
      0.486      0.003     5.7260     69.033     33.749  33.609068     1.9971      9.141   260.8495 1.0947e+02     1.5465      0.476      0.691    24.8055   997.1158 0.0000e+00
      0.486      0.006     5.8554     70.511     33.862  33.680605     1.9910      9.128   260.4330 1.0951e+02     1.5221      0.477      0.691    24.8042   997.1161 0.0000e+00
      0.486      0.010     6.2788     75.444     33.964  33.705482     2.0555      9.111   260.1573 1.1022e+02     1.5178      0.477      0.692    24.8044   997.1160 0.0000e+00
      0.488      0.014     7.0490     84.512     34.059  33.719345     2.1793      9.099   259.9251 1.1022e+02     1.5277      0.477      0.692    24.8033   997.1163 0.0000e+00
      0.494      0.018     8.0453     96.315     34.117  33.721170     2.2390      9.094   259.7761 1.0876e+02     1.5103      0.482      0.699    24.8043   997.1161 0.0000e+00
      0.502      0.023     9.1111    108.978     34.157  33.727479     2.2400      9.088   259.5606 1.0798e+02     1.5039      0.493      0.716    24.7540   997.1290 0.0000e+00
      0.508      0.027    10.1148    120.896     34.190  33.732105     2.2951      9.080   259.2117 1.0804e+02     1.5489      0.499      0.724    24.6147   997.1643 0.0000e+00
      0.512      0.029    10.9368    130.630     34.198  33.713603     2.4117      9.075   258.9128 1.0695e+02     1.5950      0.500      0.725    24.4780   997.1987 0.0000e+00
      0.520      0.029    11.5167    137.492     34.197  33.694128     2.4791      9.074   258.7002 1.0530e+02     1.6027      0.507      0.737    24.4011   997.2181 0.0000e+00
      0.533      0.033    11.8504    141.457     34.195  33.686983     2.4862      9.077   258.3619 1.0458e+02     1.5762      0.526      0.761    24.3636   997.2277 0.0000e+00
      0.541      0.044    11.9612    142.757     34.140  33.627216     2.4630      9.084   257.5759 1.0499e+02     1.6036      0.533      0.773    24.3265   997.2370 0.0000e+00
      0.544      0.056    11.9094    142.026     34.084  33.542645     2.4072      9.093   256.6819 1.0543e+02     1.7045      0.532      0.772    24.2815   997.2482 0.0000e+00
      0.550      0.061    11.7683    140.171     34.141  33.552880     2.3743      9.098   256.3293 1.0421e+02     1.7796      0.530      0.770    24.2506   997.2558 0.0000e+00
      0.575      0.061    11.5951    137.996     34.243  33.623967     2.3689      9.098   256.2368 1.0160e+02     1.7904      0.556      0.807    24.2498   997.2562 0.0000e+00
      0.611      0.058    11.4397    136.140     34.261  33.640556     2.3766      9.095   256.0801 9.9328e+01     1.7695      0.610      0.884    24.2609   997.2536 0.0000e+00
      0.632      0.050    11.3315    134.896     34.234  33.626530     2.5198      9.089   255.9840 9.7976e+01     1.7896      0.627      0.910    24.2140   997.2653 0.0000e+00
      0.636      0.038    11.2610    134.112     34.237  33.644791     2.7823      9.082   255.8494 9.7830e+01     1.8371      0.622      0.903    24.1211   997.2884 0.0000e+00
      0.636      0.022    11.2072    133.541     34.244  33.670977     2.9226      9.074   255.6574 9.8376e+01     1.8511      0.624      0.905    24.0734   997.3003 0.0000e+00
      0.636      0.009    11.1597    133.062     34.238  33.689317     2.9244      9.067   255.5551 9.8157e+01     1.8285      0.624      0.905    24.0836   997.2977 0.0000e+00
      0.636      0.006    11.1117    132.575     34.201  33.676187     2.8998      9.061   255.2145 9.7491e+01     1.7932      0.624      0.905    24.1076   997.2917 0.0000e+00
      0.636      0.010    11.0568    131.961     34.152  33.639179     2.8678      9.057   254.5501 9.7175e+01     1.7853      0.624      0.905    24.1261   997.2871 0.0000e+00
      0.636      0.014    10.9906    131.146     34.143  33.622661     2.8500      9.053   254.2335 9.6715e+01     1.7987      0.624      0.905    24.1527   997.2806 0.0000e+00
      0.640      0.018    10.9159    130.194     34.140  33.603384     2.8487      9.048   254.2263 9.6049e+01     1.7912      0.626      0.908    24.1914   997.2710 0.0000e+00
      0.649      0.020    10.8472    129.320     34.149  33.596457     2.8519      9.040   254.0321 9.5588e+01     1.7602      0.638      0.925    24.2325   997.2608 0.0000e+00
      0.658      0.023    10.8002    128.719     34.167  33.602356     2.8543      9.033   253.8643 9.5403e+01     1.7509      0.648      0.939    24.2562   997.2550 0.0000e+00
      0.663      0.027    10.7830    128.468     34.125  33.547759     2.8607      9.028   253.8327 9.5225e+01     1.7778      0.650      0.944    24.2366   997.2598 0.0000e+00
      0.667      0.035    10.7900    128.463     34.045  33.444009     2.8598      9.023   253.6507 9.4882e+01     1.7893      0.654      0.949    24.2049   997.2677 0.0000e+00
      0.671      0.049    10.8119    128.574     34.005  33.363295     2.7742      9.016   253.3832 9.4223e+01     1.7921      0.656      0.952    24.1830   997.2732 0.0000e+00
      0.681      0.069    10.8533    128.893     34.025  33.333330     2.6231      9.007   253.0945 9.3105e+01     1.8118      0.664      0.964    24.1670   997.2772 0.0000e+00
      0.699      0.091    10.9268    129.613     34.071  33.335482     2.5498      8.997   252.4835 9.1535e+01     1.8307      0.683      0.990    24.1573   997.2797 0.0000e+00
      0.727      0.109    11.0323    130.744     34.095  33.325796     2.5559      8.986   251.5013 8.9055e+01     1.8567      0.708      1.027    24.1223   997.2885 0.0000e+00
      0.765      0.119    11.1525    132.071     34.075  33.279622     2.6621      8.976   250.5977 8.5874e+01     1.9302      0.748      1.086    24.0542   997.3055 0.0000e+00
      0.809      0.121    11.2735    133.420     34.039  33.221401     2.8541      8.967   250.0759 8.3188e+01     1.9972      0.797      1.155    23.9732   997.3256 0.0000e+00
      0.845      0.115    11.3887    134.693     34.035  33.192968     2.9530      8.958   249.8377 8.1590e+01     1.9788      0.834      1.210    23.9085   997.3418 0.0000e+00
      0.870      0.104    11.4912    135.788     34.063  33.189650     2.9648      8.950   249.7832 8.0439e+01     1.9702      0.854      1.239    23.8641   997.3528 0.0000e+00
      0.889      0.089    11.5748    136.638     34.093  33.181239     2.9448      8.941   249.6746 7.9194e+01     2.0572      0.872      1.264    23.8229   997.3629 0.0000e+00
      0.908      0.074    11.6351    137.208     34.104  33.154685     2.8841      8.936   249.2134 7.8087e+01     2.1785      0.892      1.293    23.7942   997.3701 0.0000e+00
      0.926      0.062    11.6750    137.569     34.101  33.122380     2.8461      8.933   248.5940 7.7032e+01     2.2240      0.907      1.316    23.7612   997.3782 0.0000e+00
      0.943      0.052    11.7078    137.894     34.103  33.107906     2.8504      8.930   248.2087 7.6121e+01     2.2143      0.927      1.344    23.7141   997.3898 0.0000e+00
      0.957      0.046    11.7471    138.329     34.109  33.106581     2.8664      8.928   247.9097 7.5813e+01     2.2255      0.943      1.366    23.6584   997.4034 0.0000e+00
      0.962      0.041    11.7921    138.847     34.112  33.106348     2.9273      8.926   247.5608 7.5673e+01     2.2931      0.943      1.368    23.5966   997.4185 0.0000e+00
      0.967      0.040    11.8345    139.333     34.114  33.105078     3.0317      8.923   247.4320 7.5128e+01     2.4095      0.946      1.373    23.5521   997.4292 0.0000e+00
      0.976      0.040    11.8717    139.743     34.107  33.091221     3.0877      8.921   247.3840 7.4420e+01     2.4531      0.957      1.388    23.5324   997.4340 0.0000e+00
      0.987      0.041    11.9027    140.068     34.091  33.065725     3.0932      8.919   247.1529 7.3590e+01     2.4275      0.967      1.403    23.5231   997.4363 0.0000e+00
      1.002      0.043    11.9237    140.278     34.086  33.050632     3.0809      8.918   246.9615 7.2597e+01     2.4275      0.983      1.425    23.5203   997.4370 0.0000e+00
      1.017      0.044    11.9327    140.340     34.081  33.035644     3.0516      8.916   246.7046 7.1782e+01     2.4522      1.000      1.450    23.5190   997.4375 0.0000e+00
      1.027      0.043    11.9324    140.268     34.075  33.011406     3.0344      8.913   246.2835 7.1171e+01     2.4973      1.007      1.461    23.5070   997.4404 0.0000e+00
      1.035      0.039    11.9242    140.079     34.100  33.011399     3.0374      8.908   246.5158 7.0592e+01     2.5144      1.014      1.471    23.4885   997.4449 0.0000e+00
      1.045      0.032    11.9076    139.798     34.148  33.035527     3.1829      8.904   247.1044 6.9912e+01     2.4292      1.024      1.486    23.4756   997.4481 0.0000e+00
      1.055      0.023    11.8838    139.480     34.173  33.049262     3.4669      8.903   246.9479 6.9253e+01     2.2867      1.034      1.500    23.4643   997.4509 0.0000e+00
      1.064      0.014    11.8558    139.186     34.164  33.050517     3.6186      8.901   246.2584 6.8995e+01     2.2000      1.045      1.516    23.4374   997.4574 0.0000e+00
      1.068      0.008    11.8308    138.971     34.143  33.050719     3.6212      8.898   245.5643 6.9168e+01     2.2006      1.050      1.523    23.3976   997.4670 0.0000e+00
      1.064      0.006    11.8169    138.851     34.132  33.051737     3.5249      8.894   245.3514 6.9518e+01     2.2281      1.044      1.514    23.3605   997.4760 0.0000e+00
      1.057      0.010    11.8137    138.814     34.144  33.062838     3.3383      8.885   245.8355 6.9740e+01     2.2376      1.034      1.500    23.3384   997.4812 0.0000e+00
      1.054      0.019    11.8137    138.839     34.132  33.058022     3.2297      8.873   246.5135 6.9612e+01     2.2505      1.030      1.494    23.3554   997.4770 0.0000e+00
      1.059      0.031    11.8129    138.881     34.052  32.993508     3.2086      8.863   246.8385 6.8986e+01     2.2521      1.035      1.501    23.4027   997.4657 0.0000e+00
      1.073      0.045    11.8144    138.880     33.978  32.917440     3.1180      8.856   246.6680 6.7837e+01     2.2897      1.051      1.523    23.4210   997.4613 0.0000e+00
      1.093      0.056    11.8169    138.788     33.992  32.899813     2.9580      8.850   246.2583 6.6697e+01     2.4109      1.074      1.558    23.4048   997.4654 0.0000e+00
      1.111      0.062    11.8129    138.613     34.035  32.907255     2.8774      8.846   245.9298 6.5828e+01     2.5042      1.091      1.582    23.4120   997.4638 0.0000e+00
      1.127      0.063    11.8052    138.466     34.022  32.880458     2.8713      8.845   245.7063 6.4884e+01     2.5336      1.103      1.601    23.4515   997.4542 0.0000e+00
      1.143      0.060    11.8068    138.427     33.985  32.829637     2.8758      8.845   245.5349 6.4052e+01     2.5040      1.123      1.629    23.4538   997.4537 0.0000e+00
      1.158      0.057    11.8215    138.437     33.999  32.800439     3.0366      8.845   245.4067 6.3489e+01     2.4741      1.137      1.649    23.3873   997.4699 0.0000e+00
      1.171      0.055    11.8385    138.404     34.042  32.781214     3.3419      8.845   245.4460 6.2818e+01     2.4997      1.148      1.665    23.3204   997.4860 0.0000e+00
      1.184      0.054    11.8508    138.340     34.038  32.724023     3.5054      8.845   245.6664 6.2012e+01     2.4862      1.160      1.683    23.3149   997.4873 0.0000e+00
      1.198      0.052    11.8667    138.373     34.033  32.680007     3.5233      8.845   245.4905 6.1294e+01     2.4412      1.174      1.703    23.3156   997.4872 0.0000e+00
      1.212      0.052    11.8929    138.573     34.076  32.693185     3.5413      8.844   244.4383 6.0689e+01     2.3818      1.190      1.726    23.2435   997.5046 0.0000e+00
      1.225      0.051    11.9239    138.870     34.092  32.692940     3.5664      8.839   243.3546 6.0096e+01     2.2924      1.201      1.743    23.1356   997.5305 0.0000e+00
      1.237      0.048    11.9520    139.177     34.081  32.677023     3.5838      8.833   243.1419 5.9464e+01     2.2444      1.213      1.760    23.0557   997.5495 0.0000e+00
      1.250      0.044    11.9724    139.413     34.096  32.691105     3.5696      8.830   243.2438 5.8890e+01     2.2277      1.226      1.779    23.0018   997.5623 0.0000e+00
      1.263      0.043    11.9813    139.522     34.076  32.672824     3.3948      8.831   243.4680 5.8509e+01     2.2219      1.240      1.798    22.9602   997.5722 0.0000e+00
      1.272      0.044    11.9799    139.496     33.984  32.582906     3.0909      8.832   243.8741 5.8370e+01     2.2401      1.249      1.812    22.9349   997.5782 0.0000e+00
      1.278      0.048    11.9730    139.348     33.908  32.492361     2.9384      8.830   243.3361 5.8186e+01     2.2836      1.252      1.816    22.9331   997.5787 0.0000e+00
      1.288      0.055    11.9643    139.099     33.855  32.403002     2.9385      8.827   241.9524 5.7642e+01     2.3230      1.260      1.827    22.9328   997.5788 0.0000e+00
      1.303      0.065    11.9556    138.773     33.769  32.263934     3.0240      8.824   241.3407 5.6877e+01     2.3551      1.276      1.851    22.9347   997.5784 0.0000e+00
      1.322      0.074    11.9458    138.394     33.714  32.143460     3.1822      8.817   241.4459 5.5937e+01     2.4094      1.296      1.879    22.9420   997.5768 0.0000e+00
      1.345      0.079    11.9299    137.955     33.726  32.088517     3.2733      8.809   241.6756 5.4748e+01     2.4552      1.318      1.913    22.9167   997.5828 0.0000e+00
      1.370      0.082    11.9032    137.435     33.736  32.043734     3.2848      8.804   242.0541 5.3609e+01     2.4831      1.344      1.950    22.8617   997.5959 0.0000e+00
      1.394      0.082    11.8662    136.836     33.717  31.982670     3.2252      8.800   241.5473 5.2780e+01     2.4849      1.370      1.985    22.7701   997.6174 0.0000e+00
      1.414      0.081    11.8251    136.181     33.702  31.921261     3.1074      8.795   240.0225 5.2215e+01     2.4761      1.389      2.014    22.6627   997.6426 0.0000e+00
      1.429      0.078    11.7824    135.486     33.706  31.872302     3.0402      8.793   239.0193 5.1613e+01     2.4754      1.400      2.031    22.5621   997.6661 0.0000e+00
      1.446      0.077    11.7372    134.776     33.719  31.834837     3.0362      8.792   239.1399 5.0695e+01     2.4761      1.415      2.052    22.4783   997.6857 0.0000e+00
      1.469      0.077    11.6986    134.170     33.712  31.785499     3.0607      8.789   239.8464 4.9711e+01     2.4848      1.441      2.091    22.4264   997.6978 0.0000e+00
      1.490      0.080    11.6729    133.726     33.683  31.719904     3.2747      8.784   240.2474 4.8942e+01     2.5474      1.463      2.122    22.3580   997.7137 0.0000e+00
      1.509      0.082    11.6494    133.308     33.679  31.676251     3.6557      8.781   239.9458 4.8143e+01     2.6759      1.478      2.143    22.2703   997.7340 0.0000e+00
      1.530      0.082    11.6212    132.838     33.680  31.638382     3.8517      8.778   239.3829 4.7180e+01     2.7607      1.499      2.174    22.1967   997.7509 0.0000e+00
      1.553      0.081    11.5913    132.366     33.654  31.579258     3.8678      8.774   239.1195 4.6265e+01     2.7860      1.524      2.210    22.1358   997.7649 0.0000e+00
      1.574      0.079    11.5616    131.916     33.635  31.532459     3.8413      8.771   239.1700 4.5476e+01     2.7531      1.545      2.240    22.0810   997.7775 0.0000e+00
      1.594      0.075    11.5333    131.511     33.641  31.516699     3.7666      8.769   239.3048 4.4715e+01     2.6576      1.562      2.266    22.0231   997.7907 0.0000e+00
      1.614      0.070    11.5110    131.214     33.651  31.515584     3.7270      8.767   239.5450 4.3998e+01     2.6142      1.583      2.295    21.9610   997.8049 0.0000e+00
      1.631      0.065    11.4953    131.018     33.660  31.518965     3.7263      8.766   240.1819 4.3428e+01     2.6544      1.602      2.323    21.9107   997.8164 0.0000e+00
      1.646      0.065    11.4848    130.876     33.640  31.494112     3.7581      8.762   240.9829 4.2985e+01     2.6853      1.615      2.342    21.8671   997.8262 0.0000e+00
      1.657      0.069    11.4835    130.802     33.562  31.405454     3.8342      8.758   241.2277 4.2576e+01     2.6595      1.626      2.358    21.8306   997.8345 0.0000e+00
      1.670      0.075    11.4916    130.767     33.455  31.271915     3.8755      8.754   240.9910 4.1961e+01     2.6379      1.635      2.371    21.8174   997.8375 0.0000e+00
      1.690      0.081    11.5022    130.688     33.380  31.148582     3.8750      8.751   240.7870 4.1011e+01     2.6541      1.655      2.399    21.8142   997.8384 0.0000e+00
      1.718      0.089    11.5100    130.533     33.350  31.056372     3.8370      8.746   240.9989 3.9936e+01     2.7239      1.685      2.445    21.8102   997.8394 0.0000e+00
      1.746      0.095    11.5076    130.256     33.341  30.981848     3.7548      8.737   242.0046 3.8922e+01     2.8260      1.713      2.485    21.7918   997.8436 0.0000e+00
      1.771      0.097    11.4844    129.760     33.368  30.945436     3.7044      8.729   243.2238 3.8062e+01     2.8403      1.738      2.520    21.7430   997.8546 0.0000e+00
      1.795      0.094    11.4334    128.995     33.409  30.933307     3.6961      8.727   243.6093 3.7227e+01     2.7979      1.759      2.551    21.6592   997.8734 0.0000e+00
      1.820      0.090    11.3560    127.995     33.409  30.898583     3.6894      8.725   243.5670 3.6350e+01     2.8385      1.785      2.589    21.5552   997.8968 0.0000e+00
      1.844      0.087    11.2641    126.865     33.375  30.842815     3.6749      8.722   243.6599 3.5710e+01     2.9047      1.813      2.628    21.4562   997.9188 0.0000e+00
      1.862      0.086    11.1752    125.752     33.325  30.766629     3.6598      8.719   243.7860 3.5156e+01     2.8779      1.826      2.647    21.3595   997.9402 0.0000e+00
      1.881      0.086    11.1017    124.770     33.273  30.675381     3.6457      8.714   244.4033 3.4391e+01     2.8094      1.841      2.671    21.2783   997.9582 0.0000e+00
      1.904      0.089    11.0472    123.960     33.280  30.627847     3.6249      8.707   245.7027 3.3647e+01     2.7971      1.868      2.710    21.2341   997.9680 0.0000e+00
      1.926      0.090    11.0112    123.344     33.353  30.636005     3.5300      8.700   246.9353 3.2999e+01     2.7626      1.889      2.740    21.2038   997.9747 0.0000e+00
      1.948      0.088    10.9926    122.945     33.421  30.647031     3.3654      8.695   247.7779 3.2200e+01     2.6538      1.906      2.764    21.1633   997.9836 0.0000e+00
      1.976      0.080    10.9837    122.735     33.441  30.634181     3.2731      8.693   248.2331 3.1259e+01     2.5952      1.937      2.808    21.0984   997.9979 0.0000e+00
      2.005      0.071    10.9760    122.618     33.422  30.607509     3.2553      8.691   248.2236 3.0593e+01     2.6114      1.973      2.860    21.0123   998.0167 0.0000e+00
      2.022      0.064    10.9675    122.498     33.397  30.578341     3.1766      8.687   248.0057 3.0382e+01     2.5879      1.989      2.883    20.9212   998.0366 0.0000e+00
      2.027      0.062    10.9574    122.324     33.369  30.535318     3.0408      8.681   248.2665 3.0290e+01     2.5077      1.988      2.883    20.8305   998.0561 0.0000e+00
      2.031      0.066    10.9467    122.110     33.324  30.468031     2.9740      8.674   249.1396 3.0000e+01     2.4929      1.989      2.884    20.7816   998.0666 0.0000e+00
      2.043      0.076    10.9429    121.912     33.296  30.399275     2.9679      8.666   249.8725 2.9380e+01     2.5070      1.999      2.899    20.7875   998.0654 0.0000e+00
      2.067      0.090    10.9474    121.744     33.296  30.338473     2.9661      8.660   250.2440 2.8592e+01     2.4499      2.025      2.938    20.7824   998.0666 0.0000e+00
      2.097      0.105    10.9536    121.586     33.327  30.303883     2.9699      8.656   250.5340 2.7760e+01     2.4250      2.056      2.982    20.7501   998.0736 0.0000e+00
      2.132      0.115    10.9595    121.470     33.376  30.298224     2.9798      8.653   250.7984 2.6792e+01     2.4684      2.088      3.028    20.7194   998.0804 0.0000e+00
      2.169      0.118    10.9693    121.455     33.383  30.269983     2.9986      8.649   251.2039 2.5920e+01     2.4827      2.130      3.090    20.6561   998.0940 0.0000e+00
      2.200      0.116    10.9874    121.513     33.367  30.216192     3.1103      8.645   251.9958 2.5307e+01     2.4017      2.160      3.133    20.5541   998.1158 0.0000e+00
      2.225      0.113    11.0134    121.557     33.374  30.155412     3.3161      8.642   252.9731 2.4702e+01     2.2756      2.180      3.162    20.4522   998.1375 0.0000e+00
      2.251      0.109    11.0430    121.568     33.417  30.106088     3.4325      8.639   253.6419 2.4046e+01     2.2354      2.207      3.201    20.3706   998.1548 0.0000e+00
      2.277      0.108    11.0738    121.590     33.467  30.063868     3.4511      8.635   253.8882 2.3464e+01     2.2442      2.234      3.239    20.3333   998.1627 0.0000e+00
      2.303      0.109    11.1078    121.670     33.515  30.025522     3.4549      8.631   254.2305 2.2897e+01     2.2177      2.258      3.275    20.2950   998.1709 0.0000e+00
      2.331      0.110    11.1470    121.827     33.597  30.023061     3.4517      8.625   255.1128 2.2267e+01     2.1448      2.285      3.314    20.1831   998.1944 0.0000e+00
      2.361      0.106    11.1870    122.031     33.681  30.034015     3.4557      8.620   256.2962 2.1649e+01     2.0510      2.316      3.359    20.0393   998.2244 0.0000e+00
      2.391      0.099    11.2238    122.284     33.723  30.030979     3.4598      8.616   257.0961 2.1053e+01     2.0340      2.345      3.401    19.9058   998.2520 0.0000e+00
      2.420      0.090    11.2643    122.655     33.695  29.986291     3.4757      8.614   257.2984 2.0524e+01     2.0373      2.376      3.445    19.7865   998.2765 0.0000e+00
      2.444      0.084    11.3172    123.155     33.591  29.874389     3.6131      8.612   257.2802 2.0248e+01     1.9259      2.402      3.485    19.6742   998.2995 0.0000e+00
      2.458      0.080    11.3778    123.630     33.515  29.756640     3.8561      8.608   257.3917 2.0093e+01     1.8022      2.411      3.497    19.5668   998.3214 0.0000e+00
      2.469      0.078    11.4277    123.865     33.550  29.704670     3.9937      8.603   257.6997 1.9788e+01     1.7864      2.418      3.506    19.5079   998.3333 0.0000e+00
      2.487      0.076    11.4523    123.818     33.630  29.690074     4.0116      8.599   258.5097 1.9338e+01     1.8009      2.436      3.533    19.4909   998.3367 0.0000e+00
      2.512      0.076    11.4586    123.646     33.651  29.643498     4.0123      8.597   259.6136 1.8848e+01     1.8134      2.462      3.571    19.4810   998.3389 0.0000e+00
      2.538      0.076    11.4630    123.507     33.642  29.585608     4.0098      8.594   260.2060 1.8462e+01     1.8384      2.493      3.614    19.4112   998.3529 0.0000e+00
      2.558      0.074    11.4738    123.439     33.670  29.561124     4.0083      8.590   260.4238 1.8237e+01     1.8416      2.513      3.645    19.2619   998.3827 0.0000e+00
      2.573      0.069    11.4933    123.454     33.704  29.537749     4.0196      8.588   260.4403 1.8013e+01     1.8203      2.522      3.658    19.1245   998.4100 0.0000e+00
      2.589      0.063    11.5193    123.568     33.631  29.429824     4.0425      8.586   260.3192 1.7722e+01     1.7440      2.537      3.680    19.0329   998.4280 0.0000e+00
      2.606      0.062    11.5486    123.748     33.417  29.207910     4.0594      8.583   260.7668 1.7483e+01     1.6080      2.557      3.709    18.9690   998.4406 0.0000e+00
      2.619      0.066    11.5796    123.911     33.172  28.948415     4.0682      8.578   261.7225 1.7356e+01     1.5185      2.571      3.728    18.8987   998.4544 0.0000e+00
      2.629      0.071    11.6049    123.937     33.037  28.766778     4.0710      8.574   262.4096 1.7175e+01     1.5475      2.575      3.736    18.8086   998.4719 0.0000e+00
      2.646      0.074    11.6194    123.809     33.075  28.724796     4.0667      8.570   262.8797 1.6783e+01     1.5980      2.589      3.756    18.7421   998.4848 0.0000e+00
      2.672      0.076    11.6249    123.638     33.110  28.694521     4.0598      8.567   263.4487 1.6312e+01     1.5724      2.620      3.800    18.7026   998.4925 0.0000e+00
      2.701      0.080    11.6354    123.614     32.957  28.527532     4.0571      8.563   264.0402 1.5967e+01     1.5330      2.653      3.847    18.6422   998.5041 0.0000e+00
      2.721      0.085    11.6731    123.867     32.728  28.291912     4.0511      8.560   264.6114 1.5780e+01     1.5472      2.672      3.876    18.5395   998.5238 0.0000e+00
      2.735      0.088    11.7393    124.292     32.623  28.129734     3.9347      8.556   264.7625 1.5615e+01     1.5805      2.681      3.888    18.4128   998.5479 0.0000e+00
      2.751      0.090    11.8126    124.731     32.602  28.025852     3.7170      8.552   264.5765 1.5320e+01     1.5749      2.693      3.905    18.3075   998.5680 0.0000e+00
      2.776      0.092    11.8758    125.118     32.492  27.860567     3.5947      8.550   264.8578 1.4923e+01     1.5454      2.719      3.944    18.2749   998.5741 0.0000e+00
      2.807      0.095    11.9243    125.369     32.327  27.653908     3.5746      8.549   265.4106 1.4552e+01     1.5509      2.754      3.994    18.2472   998.5793 0.0000e+00
      2.837      0.096    11.9555    125.384     32.231  27.493896     3.5698      8.548   266.0986 1.4250e+01     1.5755      2.784      4.037    18.1183   998.6035 0.0000e+00
      2.862      0.093    11.9687    125.166     32.207  27.385021     3.5448      8.547   266.9811 1.4001e+01     1.5157      2.808      4.072    17.9592   998.6331 0.0000e+00
      2.882      0.086    11.9639    124.773     32.271  27.352514     3.4982      8.546   266.8744 1.3789e+01     1.3856      2.828      4.101    17.8643   998.6507 0.0000e+00
      2.901      0.081    11.9423    124.262     32.358  27.354514     3.4827      8.544   266.0134 1.3600e+01     1.3131      2.846      4.126    17.7787   998.6663 0.0000e+00
      2.920      0.080    11.9185    123.806     32.259  27.218788     3.4797      8.542   266.0345 1.3438e+01     1.2944      2.864      4.153    17.6533   998.6891 0.0000e+00
      2.937      0.084    11.9129    123.534     32.039  26.980272     3.4700      8.539   266.6144 1.3284e+01     1.2572      2.880      4.178    17.5065   998.7156 0.0000e+00
      2.956      0.088    11.9265    123.318     31.952  26.817998     3.4696      8.537   267.3458 1.3087e+01     1.1913      2.897      4.201    17.3689   998.7402 0.0000e+00
      2.980      0.091    11.9430    123.007     31.972  26.715842     3.4664      8.535   268.3383 1.2816e+01     1.1198      2.918      4.234    17.2511   998.7613 0.0000e+00
      3.010      0.092    11.9501    122.629     32.008  26.633152     3.4578      8.535   268.8928 1.2551e+01     1.0821      2.952      4.282    17.1795   998.7740 0.0000e+00
      3.038      0.089    11.9415    122.200     32.045  26.579375     3.3993      8.534   268.4577 1.2371e+01     1.0951      2.983      4.327    17.1311   998.7825 0.0000e+00
      3.061      0.084    11.9160    121.657     32.046  26.509624     3.2883      8.534   267.4656 1.2219e+01     1.1139      3.003      4.355    16.9851   998.8080 0.0000e+00
      3.079      0.077    11.8770    120.933     32.041  26.424137     3.2249      8.534   267.1358 1.2076e+01     1.1126      3.020      4.380    16.7686   998.8455 0.0000e+00
      3.096      0.071    11.8215    119.993     32.091  26.370406     3.2220      8.533   267.6543 1.1967e+01     1.1116      3.037      4.405    16.5804   998.8775 0.0000e+00
      3.111      0.066    11.7470    118.886     32.196  26.367378     3.2104      8.532   268.3996 1.1863e+01     1.1028      3.051      4.425    16.4580   998.8982 0.0000e+00
      3.127      0.065    11.6587    117.753     32.296  26.387422     3.1796      8.531   268.9194 1.1742e+01     1.1035      3.066      4.447    16.3711   998.9128 0.0000e+00
      3.143      0.065    11.5650    116.730     32.285  26.358909     3.1624      8.528   269.2078 1.1606e+01     1.1196      3.083      4.471    16.2394   998.9347 0.0000e+00
      3.160      0.066    11.4769    115.832     32.187  26.276369     3.1589      8.525   269.5633 1.1463e+01     1.1021      3.099      4.494    16.0815   998.9607 0.0000e+00
      3.178      0.069    11.4070    114.991     32.154  26.214188     3.1624      8.523   269.8621 1.1325e+01     1.0882      3.116      4.520    15.9302   998.9854 0.0000e+00
      3.195      0.071    11.3592    114.181     32.216  26.178023     3.1439      8.522   270.1536 1.1199e+01     1.1148      3.133      4.543    15.8200   999.0032 0.0000e+00
      3.212      0.072    11.3252    113.432     32.323  26.156197     3.0919      8.519   270.6776 1.1067e+01     1.1288      3.149      4.567    15.8033   999.0061 0.0000e+00
      3.231      0.071    11.2897    112.717     32.422  26.140481     3.0536      8.516   271.2948 1.0916e+01     1.0944      3.168      4.595    15.8389   999.0004 0.0000e+00
      3.253      0.071    11.2397    111.951     32.479  26.114771     3.0366      8.513   271.7652 1.0755e+01     1.0595      3.190      4.626    15.7971   999.0070 0.0000e+00
      3.273      0.074    11.1732    111.070     32.534  26.099014     3.0161      8.511   272.1487 1.0640e+01     1.0675      3.213      4.660    15.6346   999.0331 0.0000e+00
      3.287      0.079    11.0883    109.976     32.592  26.076771     2.9877      8.509   272.7486 1.0591e+01     1.0925      3.225      4.678    15.4481   999.0624 0.0000e+00
      3.300      0.084    10.9858    108.651     32.649  26.036076     2.9787      8.506   273.4265 1.0487e+01     1.1316      3.232      4.687    15.2937   999.0864 0.0000e+00
      3.322      0.088    10.8717    107.201     32.701  25.987516     2.9859      8.504   273.8053 1.0262e+01     1.1470      3.254      4.720    15.1886   999.1027 0.0000e+00
      3.352      0.091    10.7402    105.609     32.739  25.933617     2.9973      8.502   273.9737 1.0022e+01     1.0497      3.290      4.770    15.1146   999.1141 0.0000e+00
      3.382      0.092    10.5829    103.790     32.786  25.891815     3.0300      8.501   274.2573 9.8489e+00     0.9053      3.319      4.814    15.0144   999.1295 0.0000e+00
      3.406      0.090    10.4002    101.745     32.844  25.862640     3.0509      8.501   274.6537 9.7193e+00     0.8429      3.341      4.846    14.8718   999.1510 0.0000e+00
      3.427      0.084    10.1944     99.498     32.899  25.834536     3.0418      8.501   274.9800 9.6080e+00     0.8195      3.362      4.876    14.7248   999.1728 0.0000e+00
      3.446      0.077     9.9647     97.048     32.944  25.805694     3.0677      8.500   275.2775 9.5148e+00     0.8524      3.381      4.903    14.6010   999.1911 0.0000e+00
      3.463      0.072     9.7153     94.463     32.957  25.767606     3.1302      8.499   275.4979 9.4208e+00     0.9792      3.396      4.924    14.4809   999.2087 0.0000e+00
      3.480      0.071     9.4603     91.873     32.987  25.754597     3.1552      8.497   275.6653 9.3081e+00     1.0737      3.413      4.950    14.3648   999.2255 0.0000e+00
      3.498      0.072     9.2114     89.347     33.061  25.775252     3.1452      8.495   275.9257 9.1955e+00     1.0774      3.432      4.978    14.2604   999.2405 0.0000e+00
      3.515      0.074     8.9768     86.984     33.084  25.763533     3.1134      8.492   276.3229 9.0967e+00     0.9912      3.446      4.997    14.1522   999.2559 0.0000e+00
      3.533      0.076     8.7680     84.904     33.080  25.739752     3.0655      8.489   276.9404 8.9942e+00     0.8836      3.463      5.022    14.0775   999.2663 0.0000e+00
      3.555      0.080     8.5960     83.132     33.133  25.741453     3.0429      8.487   277.6277 8.8758e+00     0.8581      3.486      5.057    14.0402   999.2716 0.0000e+00
      3.576      0.087     8.4569     81.568     33.293  25.784058     3.0391      8.484   278.0078 8.7656e+00     0.8791      3.510      5.090    13.9739   999.2810 0.0000e+00
      3.596      0.096     8.3386     80.130     33.554  25.874157     3.0376      8.481   278.0944 8.6684e+00     0.8749      3.528      5.117    13.9200   999.2886 0.0000e+00
      3.617      0.104     8.2312     78.790     33.796  25.942532     3.0676      8.478   278.2440 8.5236e+00     0.8409      3.543      5.140    13.9136   999.2896 0.0000e+00
      3.646      0.109     8.1091     77.347     33.981  25.976227     3.1245      8.474   278.5263 8.3273e+00     0.8286      3.573      5.182    13.8716   999.2955 0.0000e+00
      3.681      0.110     7.9374     75.492     34.164  26.027672     3.1538      8.472   278.8403 8.1477e+00     0.8245      3.611      5.237    13.7377   999.3140 0.0000e+00
      3.716      0.108     7.6908     72.983     34.376  26.120354     3.1533      8.472   279.2011 8.0010e+00     0.8232      3.645      5.286    13.5552   999.3388 0.0000e+00
      3.746      0.104     7.3523     69.629     34.576  26.208583     3.1524      8.470   279.6193 7.8766e+00     0.9118      3.676      5.331    13.3713   999.3633 0.0000e+00
      3.769      0.097     6.9294     65.476     34.751  26.269623     3.1514      8.468   279.9389 7.7862e+00     1.0438      3.699      5.364    13.2075   999.3848 0.0000e+00
      3.787      0.088     6.4616     60.911     34.957  26.350768     3.1500      8.467   280.0544 7.7063e+00     1.1085      3.713      5.384    13.0772   999.4016 0.0000e+00
      3.806      0.083     5.9846     56.300     35.143  26.428315     3.1615      8.466   280.1544 7.6108e+00     1.1032      3.732      5.412    12.9837   999.4136 0.0000e+00
      3.828      0.082     5.5212     51.861     35.228  26.445857     3.1867      8.463   280.2027 7.5218e+00     1.0777      3.755      5.446    12.9061   999.4236 0.0000e+00
      3.849      0.084     5.0934     47.777     35.273  26.435932     3.2121      8.460   280.1219 7.4432e+00     1.0953      3.775      5.475    12.7970   999.4373 0.0000e+00
      3.869      0.084     4.7185     44.186     35.342  26.435155     3.2257      8.457   280.3814 7.3472e+00     1.1200      3.793      5.502    12.6803   999.4519 0.0000e+00
      3.892      0.080     4.3980     41.112     35.417  26.436405     3.2208      8.455   281.6195 7.2172e+00     1.0818      3.815      5.532    12.5901   999.4631 0.0000e+00
      3.917      0.076     4.1306     38.561     35.491  26.450979     3.1955      8.453   283.4779 7.0986e+00     0.9935      3.842      5.572    12.5281   999.4707 0.0000e+00
      3.939      0.078     3.9218     36.581     35.571  26.484433     3.1628      8.451   284.5243 7.0510e+00     0.9045      3.868      5.610    12.4795   999.4767 0.0000e+00
      3.952      0.085     3.7626     35.062     35.665  26.523657     3.1556      8.447   284.5493 7.0433e+00     0.8907      3.879      5.627    12.3984   999.4864 0.0000e+00
      3.962      0.094     3.6439     33.908     35.753  26.544546     3.1686      8.442   284.4676 6.9885e+00     0.9251      3.880      5.628    12.3076   999.4972 0.0000e+00
      3.982      0.102     3.5684     33.152     35.823  26.546616     3.1565      8.439   284.3106 6.8328e+00     0.9600      3.897      5.651    12.2524   999.5038 0.0000e+00
      4.020      0.110     3.5306     32.749     35.892  26.548635     3.1128      8.439   284.0279 6.6412e+00     1.0174      3.940      5.715    12.2272   999.5070 0.0000e+00
      4.061      0.116     3.5191     32.594     35.983  26.568905     3.0825      8.438   284.7491 6.4954e+00     1.0622      3.987      5.783    12.1919   999.5114 0.0000e+00
      4.095      0.116     3.5268     32.615     36.092  26.601305     3.0850      8.435   286.4064 6.3860e+00     1.0756      4.018      5.828    12.1219   999.5197 0.0000e+00
      4.122      0.109     3.5447     32.739     36.176  26.623112     3.0902      8.433   287.3745 6.2918e+00     1.0809      4.042      5.863    12.0467   999.5284 0.0000e+00
      4.146      0.099     3.5634     32.888     36.233  26.642200     3.0422      8.431   287.6779 6.2126e+00     1.1266      4.067      5.899    11.9813   999.5361 0.0000e+00
      4.168      0.093     3.5826     33.059     36.242  26.641735     2.9546      8.429   288.0100 6.1415e+00     1.2352      4.088      5.929    11.9175   999.5435 0.0000e+00
      4.188      0.090     3.6057     33.270     36.213  26.617485     2.9149      8.426   288.1200 6.0579e+00     1.3117      4.106      5.955    11.8459   999.5517 0.0000e+00
      4.208      0.085     3.6383     33.558     36.209  26.602767     2.9091      8.423   287.9758 5.9637e+00     1.3307      4.125      5.982    11.7848   999.5586 0.0000e+00
      4.233      0.079     3.6852     33.978     36.208  26.590659     2.7897      8.420   288.6758 5.8641e+00     1.3342      4.148      6.016    11.7525   999.5623 0.0000e+00
      4.261      0.075     3.7485     34.563     36.131  26.534509     2.5637      8.418   290.3891 5.7715e+00     1.3208      4.180      6.064    11.7489   999.5628 0.0000e+00
      4.281      0.076     3.8339     35.348     35.992  26.431415     2.4305      8.415   291.6541 5.7302e+00     1.3003      4.204      6.099    11.7590   999.5617 0.0000e+00
      4.290      0.083     3.9426     36.315     35.848  26.295803     2.4105      8.411   292.0976 5.7252e+00     1.3153      4.207      6.102    11.7320   999.5648 0.0000e+00
      4.296      0.091     4.0648     37.355     35.764  26.163658     2.3742      8.407   291.9665 5.6768e+00     1.3713      4.208      6.101    11.7054   999.5678 0.0000e+00
      4.317      0.098     4.1881     38.376     35.805  26.102427     2.2949      8.404   291.4460 5.5431e+00     1.3879      4.226      6.129    11.7172   999.5665 0.0000e+00
      4.355      0.104     4.3095     39.387     35.861  26.062897     2.2492      8.404   291.2239 5.3480e+00     1.3845      4.270      6.193    11.7302   999.5652 0.0000e+00
      4.398      0.108     4.4431     40.531     35.861  26.002832     2.2466      8.403   291.4319 5.1669e+00     1.3958      4.319      6.263    11.6993   999.5688 0.0000e+00
      4.432      0.107     4.6113     42.005     35.933  26.010527     2.2291      8.403   291.8096 5.0591e+00     1.3598      4.350      6.310    11.5863   999.5812 0.0000e+00
      4.453      0.098     4.8246     43.893     36.188  26.155889     2.2015      8.402   292.3497 4.9949e+00     1.3102      4.368      6.336    11.4408   999.5971 0.0000e+00
      4.470      0.086     5.0771     46.136     36.528  26.364631     2.1910      8.400   292.8857 4.9210e+00     1.2882      4.384      6.358    11.3242   999.6096 0.0000e+00
      4.486      0.078     5.3617     48.667     36.772  26.504211     2.1882      8.398   293.2132 4.8316e+00     1.2897      4.399      6.379    11.2448   999.6180 0.0000e+00
      4.505      0.076     5.6673     51.389     36.914  26.574647     2.1852      8.397   293.2989 4.7223e+00     1.3619      4.417      6.406    11.1876   999.6240 0.0000e+00
      4.526      0.079     5.9771     54.152     37.050  26.645243     2.1806      8.394   293.3196 4.6007e+00     1.4733      4.440      6.439    11.1366   999.6294 0.0000e+00
      4.546      0.084     6.2733     56.798     37.188  26.723309     2.1674      8.391   292.9469 4.5022e+00     1.5222      4.458      6.466    11.0855   999.6349 0.0000e+00
      4.566      0.090     6.5281     59.077     37.345  26.820638     2.1646      8.387   292.2349 4.4152e+00     1.5266      4.475      6.491    11.0344   999.6403 0.0000e+00
      4.590      0.097     6.7214     60.796     37.614  26.997240     2.1649      8.382   292.3675 4.3166e+00     1.5594      4.501      6.528    10.9906   999.6449 0.0000e+00
      4.615      0.105     6.8532     61.942     37.943  27.209015     2.0492      8.377   293.4325 4.2188e+00     1.6894      4.527      6.565    10.9545   999.6487 0.0000e+00
      4.641      0.111     6.9263     62.547     38.093  27.287475     1.8319      8.373   294.6141 4.1008e+00     1.8851      4.549      6.597    10.9230   999.6520 0.0000e+00
      4.672      0.114     6.9495     62.709     38.073  27.247955     1.7134      8.371   295.2967 3.9575e+00     1.9924      4.581      6.644    10.9053   999.6539 0.0000e+00
      4.707      0.113     6.9337     62.533     38.085  27.238720     1.6924      8.369   294.7171 3.8323e+00     2.0360      4.618      6.698    10.8910   999.6557 0.0000e+00
      4.739      0.109     6.8846     62.058     38.109  27.239253     1.5945      8.367   293.2851 3.7223e+00     2.1840      4.650      6.744    10.8555   999.6596 0.0000e+00
      4.767      0.102     6.8110     61.358     38.069  27.190941     1.4224      8.365   292.8680 3.6303e+00     2.3725      4.677      6.783    10.8106   999.6641 0.0000e+00
      4.791      0.093     6.7247     60.541     37.970  27.098681     1.3287      8.362   293.7178 3.5661e+00     2.4139      4.699      6.815    10.7770   999.6675 0.0000e+00
      4.811      0.083     6.6342     59.692     37.875  27.011946     1.3196      8.359   294.6112 3.5079e+00     2.4219      4.718      6.843    10.7575   999.6696 0.0000e+00
      4.831      0.078     6.5462     58.874     37.831  26.967005     1.3124      8.357   295.4101 3.4594e+00     2.5671      4.738      6.872    10.7385   999.6715 0.0000e+00
      4.848      0.077     6.4656     58.130     37.802  26.935960     1.2849      8.354   296.1504 3.4197e+00     2.7614      4.756      6.898    10.7110   999.6743 0.0000e+00
      4.863      0.076     6.3969     57.495     37.841  26.953787     1.2649      8.350   295.8179 3.3551e+00     2.8373      4.768      6.914    10.6809   999.6771 0.0000e+00
      4.883      0.076     6.3454     57.019     37.994  27.055653     1.2610      8.347   294.6596 3.2645e+00     2.8298      4.785      6.940    10.6541   999.6798 0.0000e+00
      4.908      0.077     6.3130     56.723     38.134  27.152485     1.2290      8.345   294.2772 3.1910e+00     2.9654      4.814      6.983    10.6372   999.6816 0.0000e+00
      4.931      0.081     6.2986     56.592     38.164  27.172897     1.1728      8.342   294.6354 3.1587e+00     3.1985      4.840      7.020    10.6254   999.6829 0.0000e+00
      4.946      0.086     6.2987     56.587     38.173  27.175565     1.1364      8.339   295.2917 3.1293e+00     3.2893      4.850      7.034    10.6094   999.6844 0.0000e+00
      4.963      0.088     6.3091     56.662     38.202  27.184732     1.1277      8.338   296.1892 3.0484e+00     3.2763      4.862      7.050    10.5997   999.6855 0.0000e+00
      4.988      0.089     6.3249     56.781     38.181  27.156835     1.0757      8.335   296.7109 2.9409e+00     3.3698      4.889      7.091    10.5969   999.6859 0.0000e+00
      5.017      0.091     6.3344     56.847     38.105  27.092030     0.9675      8.333   296.6959 2.8520e+00     3.6000      4.922      7.138    10.5984   999.6860 0.0000e+00
      5.043      0.092     6.3320     56.808     38.039  27.035620     0.9026      8.331   296.4374 2.7805e+00     3.7650      4.947      7.175    10.5976   999.6862 0.0000e+00
      5.065      0.091     6.3245     56.724     37.977  26.982338     0.8901      8.328   296.2533 2.7185e+00     3.7922      4.967      7.205    10.5791   999.6880 0.0000e+00
      5.086      0.086     6.3129     56.607     37.861  26.891908     0.8770      8.326   296.3632 2.6585e+00     3.7977      4.986      7.233    10.5577   999.6902 0.0000e+00
      5.108      0.081     6.2955     56.446     37.779  26.830451     0.8305      8.323   296.5616 2.5940e+00     3.9625      5.009      7.265    10.5464   999.6913 0.0000e+00
      5.128      0.079     6.2801     56.304     37.754  26.810271     0.7606      8.321   296.5868 2.5416e+00     4.2445      5.031      7.296    10.5351   999.6924 0.0000e+00
      5.146      0.078     6.2742     56.243     37.711  26.774794     0.7171      8.319   296.5809 2.5079e+00     4.3562      5.046      7.318    10.5202   999.6940 0.0000e+00
      5.165      0.078     6.2803     56.283     37.733  26.782166     0.7041      8.318   297.0925 2.4670e+00     4.3624      5.064      7.344    10.5088   999.6950 0.0000e+00
      5.186      0.077     6.2957     56.408     37.819  26.835951     0.7240      8.316   297.9545 2.4220e+00     4.4837      5.086      7.377    10.5057   999.6954 0.0000e+00
      5.206      0.076     6.3164     56.583     37.853  26.854083     0.7671      8.313   298.4004 2.3819e+00     4.6425      5.106      7.406    10.5066   999.6954 0.0000e+00
      5.225      0.075     6.3452     56.834     37.798  26.811064     0.7833      8.311   298.3529 2.3283e+00     4.6772      5.124      7.432    10.4994   999.6961 0.0000e+00
      5.245      0.076     6.3812     57.150     37.731  26.759919     0.7719      8.308   298.1549 2.2663e+00     4.6402      5.144      7.461    10.4860   999.6976 0.0000e+00
      5.264      0.082     6.4181     57.476     37.711  26.743244     0.7426      8.303   298.2436 2.2267e+00     4.6551      5.164      7.490    10.4765   999.6986 0.0000e+00
      5.279      0.090     6.4502     57.760     37.704  26.736329     0.6972      8.299   299.1674 2.2044e+00     4.7263      5.177      7.508    10.4689   999.6994 0.0000e+00
      5.297      0.097     6.4732     57.961     37.713  26.739755     0.6743      8.296   300.4624 2.1459e+00     4.7472      5.188      7.524    10.4625   999.7000 0.0000e+00
      5.327      0.102     6.4871     58.081     37.690  26.721211     0.6729      8.294   300.9950 2.0525e+00     4.6775      5.221      7.573    10.4580   999.7005 0.0000e+00
      5.366      0.104     6.4951     58.148     37.489  26.575561     0.6727      8.293   300.9613 1.9862e+00     4.7037      5.265      7.637    10.4557   999.7009 0.0000e+00
      5.398      0.102     6.5009     58.194     37.209  26.374476     0.6713      8.292   300.6568 1.9477e+00     4.8347      5.297      7.683    10.4537   999.7014 0.0000e+00
      5.422      0.095     6.5031     58.208     37.136  26.320093     0.6658      8.290   300.1524 1.8948e+00     4.8845      5.318      7.713    10.4493   999.7019 0.0000e+00
      5.442      0.083     6.5026     58.198     37.200  26.362114     0.6577      8.288   300.0251 1.8357e+00     4.8793      5.337      7.741    10.4458   999.7023 0.0000e+00
      5.460      0.072     6.5051     58.217     37.221  26.375004     0.6425      8.286   300.6658 1.7976e+00     4.8703      5.356      7.768    10.4427   999.7026 0.0000e+00
      5.475      0.065     6.5153     58.307     37.185  26.349060     0.6289      8.284   301.7052 1.7718e+00     4.8417      5.369      7.788    10.4388   999.7028 0.0000e+00
      5.490      0.063     6.5366     58.503     37.115  26.302195     0.6243      8.283   302.2679 1.7431e+00     4.8283      5.383      7.808    10.4347   999.7033 0.0000e+00
      5.506      0.066     6.5705     58.814     37.129  26.315915     0.6121      8.280   302.3931 1.7173e+00     4.8393      5.400      7.832    10.4301   999.7039 0.0000e+00
      5.521      0.070     6.6136     59.200     37.231  26.388052     0.6031      8.276   302.5303 1.6973e+00     4.8435      5.415      7.854    10.4269   999.7042 0.0000e+00
      5.536      0.070     6.6566     59.580     37.270  26.413086     0.6109      8.274   302.6360 1.6650e+00     4.8464      5.426      7.870    10.4249   999.7045 0.0000e+00
      5.557      0.067     6.6962     59.931     37.204  26.364829     0.6194      8.274   302.4664 1.6118e+00     4.8742      5.447      7.899    10.4297   999.7041 0.0000e+00
      5.583      0.061     6.7354     60.283     37.128  26.312119     0.6198      8.273   302.3732 1.5684e+00     4.9179      5.478      7.945    10.4389   999.7034 0.0000e+00
      5.603      0.052     6.7693     60.590     37.085  26.283324     0.6155      8.271   302.7135 1.5601e+00     4.9489      5.501      7.978    10.4377   999.7037 0.0000e+00
      5.611      0.041     6.7885     60.763     37.066  26.270438     0.6112      8.269   303.0535 1.5565e+00     4.8882      5.504      7.983    10.4316   999.7043 0.0000e+00
      5.614      0.031     6.7929     60.800     37.086  26.283199     0.6103      8.267   303.2148 1.5435e+00     4.7415      5.503      7.982    10.4286   999.7045 0.0000e+00
      5.619      0.022     6.7869     60.747     37.124  26.310731     0.6136      8.265   303.3732 1.5456e+00     4.6500      5.510      7.993    10.4308   999.7043 0.0000e+00
      5.623      0.020     6.7750     60.649     37.173  26.349556     0.6156      8.264   303.5052 1.5486e+00     4.6334      5.515      7.999    10.4359   999.7038 0.0000e+00
      5.626      0.028     6.7629     60.554     37.194  26.371974     0.6177      8.263   303.5210 1.5384e+00     4.6718      5.516      8.000    10.4353   999.7039 0.0000e+00
      5.630      0.042     6.7563     60.510     37.121  26.328024     0.6227      8.261   303.3915 1.5198e+00     4.7866      5.520      8.007    10.4320   999.7042 0.0000e+00
      5.637      0.059     6.7586     60.539     36.933  26.198819     0.6234      8.258   303.2310 1.4891e+00     4.8751      5.525      8.013    10.4320   999.7043 0.0000e+00
      5.652      0.075     6.7662     60.602     36.678  26.015187     0.6255      8.256   303.2147 1.4509e+00     4.8890      5.537      8.031    10.4377   999.7038 0.0000e+00
      5.679      0.087     6.7750     60.664     36.505  25.884113     0.6401      8.255   303.2801 1.4014e+00     4.8567      5.567      8.073    10.4480   999.7030 0.0000e+00
      5.713      0.094     6.7852     60.738     36.427  25.819395     0.6612      8.254   303.4196 1.3472e+00     4.7790      5.603      8.126    10.4606   999.7019 0.0000e+00
      5.743      0.096     6.7970     60.828     36.327  25.740214     0.6722      8.253   303.6971 1.3043e+00     4.7359      5.635      8.174    10.4692   999.7012 0.0000e+00
      5.766      0.092     6.8105     60.933     36.263  25.688021     0.6696      8.250   303.9672 1.2795e+00     4.7284      5.657      8.205    10.4647   999.7016 0.0000e+00
      5.785      0.082     6.8299     61.095     36.283  25.695861     0.6553      8.248   303.9329 1.2494e+00     4.6894      5.671      8.224    10.4504   999.7030 0.0000e+00
      5.805      0.071     6.8582     61.342     36.304  25.708118     0.6379      8.246   303.5406 1.1950e+00     4.6565      5.690      8.253    10.4369   999.7044 0.0000e+00
      5.827      0.062     6.8960     61.680     36.307  25.709337     0.6331      8.246   303.3541 1.1613e+00     4.6592      5.716      8.292    10.4262   999.7054 0.0000e+00
      5.842      0.056     6.9462     62.136     36.304  25.710594     0.6316      8.245   303.6566 1.1645e+00     4.6893      5.733      8.315    10.4151   999.7065 0.0000e+00
      5.849      0.049     7.0054     62.676     36.314  25.723317     0.6278      8.243   304.1005 1.1655e+00     4.7258      5.734      8.316    10.4065   999.7074 0.0000e+00
      5.858      0.039     7.0648     63.215     36.327  25.736297     0.6390      8.241   304.3335 1.1410e+00     4.6743      5.741      8.327    10.4027   999.7077 0.0000e+00
      5.872      0.031     7.1193     63.702     36.333  25.740651     0.6633      8.239   304.3221 1.1113e+00     4.5585      5.761      8.356    10.4014   999.7079 0.0000e+00
      5.882      0.025     7.1667     64.125     36.384  25.775963     0.6793      8.237   304.3070 1.1013e+00     4.5048      5.772      8.372    10.4057   999.7076 0.0000e+00
      5.884      0.024     7.2049     64.472     36.390  25.782608     0.6846      8.235   304.4954 1.0988e+00     4.4845      5.770      8.369    10.4166   999.7066 0.0000e+00
      5.886      0.028     7.2326     64.726     36.261  25.694105     0.6673      8.233   304.7934 1.0977e+00     4.5093      5.772      8.371    10.4227   999.7060 0.0000e+00
      5.888      0.037     7.2487     64.869     36.121  25.594055     0.6345      8.232   304.9849 1.0972e+00     4.6081      5.775      8.376    10.4206   999.7061 0.0000e+00
      5.892      0.051     7.2509     64.875     36.031  25.524534     0.6259      8.231   305.0900 1.0862e+00     4.6631      5.774      8.375    10.4178   999.7066 0.0000e+00
      5.906      0.064     7.2415     64.774     35.991  25.487922     0.6324      8.230   305.2038 1.0556e+00     4.6493      5.787      8.392    10.4218   999.7063 0.0000e+00
      5.934      0.074     7.2275     64.634     35.974  25.468579     0.6268      8.229   305.3280 1.0054e+00     4.6055      5.818      8.438    10.4298   999.7055 0.0000e+00
      5.965      0.085     7.2158     64.519     35.909  25.417529     0.6106      8.227   305.4733 9.6879e-01     4.4947      5.854      8.491    10.4281   999.7058 0.0000e+00
      5.988      0.094     7.2094     64.455     35.858  25.378192     0.6011      8.224   305.6697 9.6381e-01     4.4232      5.875      8.523    10.4182   999.7068 0.0000e+00
      6.004      0.094     7.2105     64.459     35.855  25.373596     0.6073      8.222   305.8094 9.5218e-01     4.4618      5.885      8.535    10.4053   999.7081 0.0000e+00
      6.024      0.087     7.2220     64.558     35.841  25.361957     0.5997      8.222   305.8719 9.1008e-01     4.3391      5.901      8.558    10.3943   999.7092 0.0000e+00
      6.055      0.076     7.2428     64.744     35.844  25.364344     0.5688      8.220   305.9095 8.6273e-01     4.0206      5.937      8.610    10.3889   999.7098 0.0000e+00
      6.085      0.064     7.2716     65.003     35.897  25.402459     0.5550      8.219   305.9200 8.4141e-01     3.8230      5.975      8.666    10.3846   999.7104 0.0000e+00
      6.100      0.051     7.3038     65.296     35.951  25.442154     0.5621      8.219   305.9992 8.3921e-01     3.7846      5.988      8.684    10.3810   999.7108 0.0000e+00
      6.103      0.035     7.3333     65.573     35.972  25.463665     0.5687      8.218   306.0070 8.3513e-01     3.8186      5.983      8.678    10.3780   999.7110 0.0000e+00
      6.104      0.019     7.3584     65.818     35.970  25.472233     0.5660      8.217   305.9283 8.3368e-01     3.9065      5.985      8.681    10.3779   999.7111 0.0000e+00
      6.106      0.008     7.3759     65.996     35.970  25.482319     0.5554      8.215   305.9933 8.3374e-01     3.9625      5.988      8.686    10.3799   999.7109 0.0000e+00
      6.106      0.003     7.3857     66.104     36.013  25.522187     0.5519      8.213   306.1908 8.3267e-01     3.9717      5.986      8.684    10.3801   999.7109 0.0000e+00
      6.107      0.003     7.3890     66.155     36.071  25.573635     0.5585      8.212   306.5961 8.3159e-01     3.9848      5.987      8.685    10.3884   999.7102 0.0000e+00
      6.107      0.002     7.3857     66.145     36.091  25.596860     0.5749      8.211   307.1067 8.3060e-01     3.9905      5.989      8.687    10.4060   999.7085 0.0000e+00
      6.107      0.002     7.3773     66.085     36.105  25.612689     0.6032      8.210   307.2881 8.3834e-01     3.9754      5.989      8.686    10.4195   999.7072 0.0000e+00
      6.107      0.002     7.3653     65.986     36.135  25.638144     0.6233      8.208   306.8110 8.4554e-01     3.9654      5.989      8.686    10.4311   999.7062 0.0000e+00
      6.107      0.002     7.3488     65.846     36.147  25.650881     0.6271      8.207   306.0697 8.4460e-01     3.9680      5.989      8.687    10.4462   999.7048 0.0000e+00
      6.108      0.002     7.3276     65.663     36.126  25.639807     0.6229      8.206   305.8110 8.3904e-01     3.9745      5.989      8.687    10.4602   999.7035 0.0000e+00
      6.109      0.002     7.3031     65.453     36.108  25.631132     0.6161      8.204   305.9200 8.2681e-01     3.9777      5.990      8.689    10.4696   999.7026 0.0000e+00
      6.110      0.002     7.2771     65.228     36.162  25.672887     0.6142      8.204   306.3557 8.1975e-01     3.9742      5.992      8.691    10.4736   999.7022 0.0000e+00
      6.110      0.002     7.2531     65.024     36.283  25.764032     0.6171      8.203   307.0351 8.2633e-01     3.9645      5.992      8.691    10.4779   999.7018 0.0000e+00
      6.111      0.002     7.2336     64.867     36.385  25.844986     0.6342      8.200   306.7349 8.3254e-01     4.0247      5.992      8.691    10.4846   999.7012 0.0000e+00
      6.111      0.001     7.2179     64.752     36.432  25.890415     0.6651      8.199   305.5652 8.3560e-01     4.1442      5.993      8.692    10.4892   999.7008 0.0000e+00
      6.111      0.000     7.2064     64.674     36.474  25.932674     0.6782      8.199   305.1096 8.3877e-01     4.1977      5.992      8.691    10.4951   999.7002 0.0000e+00
      6.111 6.1270e-08     7.1969     64.615     36.515  25.975289     0.6712      8.198   305.2706 8.3383e-01     4.2125      5.993      8.692    10.5007   999.6997 0.0000e+00
      6.111 6.7396e-07     7.1850     64.544     36.561  26.025029     0.6493      8.196   305.6188 8.2365e-01     4.2578      5.993      8.693    10.5112   999.6988 0.0000e+00
      6.111      0.000     7.1718     64.467     36.624  26.090009     0.6216      8.195   306.3078 8.1676e-01     4.3189      5.993      8.692    10.5318   999.6968 0.0000e+00
      6.111      0.000     7.1575     64.376     36.649  26.126555     0.6231      8.192   306.8044 8.1911e-01     4.3619      5.993      8.692    10.5479   999.6953 0.0000e+00
      6.111      0.001     7.1375     64.229     36.659  26.149720     0.6328      8.191   306.6332 8.2121e-01     4.3846      5.992      8.691    10.5617   999.6940 0.0000e+00
      6.111      0.002     7.1098     64.004     36.684  26.179787     0.6433      8.190   305.9588 8.1094e-01     4.2985      5.993      8.692    10.5865   999.6916 0.0000e+00
      6.111      0.003     7.0790     63.728     36.674  26.172892     0.6713      8.188   305.4475 8.0785e-01     4.0738      5.993      8.692    10.6191   999.6885 0.0000e+00
      6.112      0.003     7.0503     63.453     36.626  26.129799     0.6855      8.187   305.3554 8.1658e-01     3.9288      5.994      8.693    10.6422   999.6864 0.0000e+00
      6.114      0.003     7.0223     63.188     36.596  26.102843     0.6852      8.186   305.4473 8.1840e-01     3.9553      5.997      8.697    10.6630   999.6843 0.0000e+00
      6.115      0.003     6.9926     62.917     36.596  26.100724     0.6930      8.184   305.6120 8.1675e-01     4.0007      5.999      8.700    10.6875   999.6820 0.0000e+00
      6.115      0.002     6.9643     62.662     36.601  26.104172     0.6931      8.182   305.7980 8.1660e-01     3.9864      5.998      8.699    10.6864   999.6821 0.0000e+00
      6.115      0.001     6.9403     62.447     36.657  26.144534     0.6786      8.182   306.4055 8.1491e-01     3.9791      5.997      8.698    10.6663   999.6840 0.0000e+00
      6.115      0.000     6.9199     62.265     36.745  26.208089     0.6656      8.181   307.1070 8.0760e-01     3.9780      5.998      8.699    10.6572   999.6849 0.0000e+00
      6.115 1.2734e-11     6.9054     62.133     36.788  26.238185     0.6568      8.180   306.8795 8.0035e-01     3.9729      5.997      8.698    10.6588   999.6847 0.0000e+00
      6.116 1.4008e-10     6.8987     62.078     36.808  26.254650     0.6508      8.179   306.4945 8.1049e-01     4.0481      5.998      8.699    10.6581   999.6848 0.0000e+00
      6.116 1.5409e-09     6.8956     62.083     36.820  26.280282     0.6363      8.178   306.6678 8.2154e-01     4.1661      5.998      8.700    10.6568   999.6849 0.0000e+00
      6.116 1.6950e-08     6.8941     62.132     36.795  26.294349     0.6190      8.177   306.7386 8.2178e-01     4.2200      5.998      8.699    10.6612   999.6845 0.0000e+00
      6.116 1.8645e-07     6.8951     62.202     36.757  26.297893     0.6157      8.175   306.6618 8.2839e-01     4.2419      5.998      8.699    10.6600   999.6847 0.0000e+00
      6.116 1.8645e-07     6.8943     62.235     36.764  26.323163     0.6314      8.173   307.4603 8.2540e-01     4.2674      5.998      8.700    10.6536   999.6854 0.0000e+00
      6.116 1.6950e-08     6.8879     62.207     36.775  26.346138     0.6605      8.172   308.9070 8.0698e-01     4.2658      5.997      8.699    10.6737   999.6834 0.0000e+00
      6.116 1.5467e-09     6.8767     62.135     36.720  26.321923     0.6728      8.171   309.5272 8.0284e-01     4.2217      5.998      8.700    10.7295   999.6779 0.0000e+00
      6.116 2.0420e-10     6.8620     62.021     36.654  26.284161     0.6760      8.169   309.6252 8.1462e-01     4.1930      5.998      8.700    10.7788   999.6731 0.0000e+00
      6.116 7.1807e-10     6.8477     61.889     36.637  26.270234     0.6821      8.167   309.7474 8.2163e-01     4.2136      5.998      8.699    10.7989   999.6711 0.0000e+00
      6.116 7.7599e-09     6.8371     61.770     36.668  26.280418     0.6775      8.166   309.3705 8.2473e-01     4.2417      5.998      8.700    10.8171   999.6694 0.0000e+00
      6.117 8.5346e-08     6.8296     61.672     36.689  26.280390     0.6719      8.166   308.7673 8.3239e-01     4.2698      5.998      8.700    10.8414   999.6669 0.0000e+00
      6.117 9.3880e-07     6.8238     61.597     36.690  26.269882     0.6674      8.165   309.5089 8.3154e-01     4.2586      5.998      8.700    10.8588   999.6651 0.0000e+00
      6.117      0.000     6.8192     61.552     36.707  26.280242     0.6752      8.163   311.3679 8.2056e-01     4.2055      5.998      8.699    10.8561   999.6654 0.0000e+00
      6.117      0.000     6.8155     61.532     36.695  26.278765     0.6962      8.162   312.3167 8.2076e-01     4.1852      5.998      8.700    10.8343   999.6676 0.0000e+00
      6.117      0.001     6.8124     61.527     36.641  26.252026     0.7044      8.161   312.3767 8.3683e-01     4.2100      5.998      8.700    10.8115   999.6698 0.0000e+00
      6.117      0.004     6.8087     61.518     36.566  26.210728     0.7044      8.160   312.0072 8.4473e-01     4.2423      5.998      8.700    10.7925   999.6717 0.0000e+00
      6.117      0.006     6.8052     61.497     36.488  26.160107     0.7134      8.159   311.2907 8.3253e-01     4.2481      5.998      8.700    10.7880   999.6722 0.0000e+00
      6.117      0.008     6.8048     61.465     36.492  26.147517     0.7103      8.158   311.0264 8.1583e-01     4.2144      5.998      8.700    10.8028   999.6707 0.0000e+00
      6.120      0.010     6.8077     61.428     36.589  26.185365     0.6846      8.157   311.4794 8.0490e-01     4.1630      6.001      8.704    10.8183   999.6692 0.0000e+00
      6.126      0.011     6.8099     61.389     36.703  26.237036     0.6703      8.155   312.2936 8.0817e-01     4.1510      6.009      8.715    10.8398   999.6671 0.0000e+00
      6.130      0.011     6.8095     61.355     36.764  26.264693     0.6763      8.155   312.9550 8.1817e-01     4.2005      6.014      8.722    10.8586   999.6651 0.0000e+00
      6.132      0.010     6.8089     61.341     36.772  26.265969     0.7048      8.154   313.1959 8.1480e-01     4.2041      6.013      8.721    10.8343   999.6676 0.0000e+00
      6.134      0.008     6.8102     61.352     36.753  26.252461     0.7473      8.153   313.1419 8.0839e-01     4.0959      6.014      8.723    10.7783   999.6732 0.0000e+00
      6.137      0.005     6.8158     61.404     36.719  26.228258     0.7652      8.151   312.9891 8.0831e-01     4.0065      6.020      8.731    10.7303   999.6780 0.0000e+00
      6.138      0.003     6.8248     61.483     36.719  26.227105     0.7646      8.151   312.8972 8.0467e-01     4.0089      6.019      8.730    10.7127   999.6797 0.0000e+00
      6.138      0.003     6.8338     61.561     36.737  26.238525     0.7488      8.150   312.7196 8.0053e-01     4.0255      6.019      8.728    10.7100   999.6799 0.0000e+00
      6.138      0.004     6.8435     61.647     36.739  26.239450     0.7045      8.149   312.5623 8.0457e-01     4.0107      6.021      8.731    10.7114   999.6798 0.0000e+00
      6.138      0.008     6.8522     61.717     36.744  26.238287     0.6710      8.148   312.8022 8.1897e-01     3.9942      6.020      8.729    10.7146   999.6794 0.0000e+00
      6.138      0.012     6.8573     61.735     36.745  26.224460     0.6642      8.148   313.2117 8.2543e-01     3.9894      6.019      8.729    10.7101   999.6799 0.0000e+00
      6.141      0.015     6.8600     61.714     36.742  26.199140     0.6751      8.147   313.6411 8.0266e-01     3.9860      6.021      8.733    10.7080   999.6801 0.0000e+00
      6.148      0.015     6.8585     61.659     36.753  26.185881     0.6980      8.145   313.9506 7.7607e-01     3.9857      6.028      8.743    10.7083   999.6801 0.0000e+00
      6.157      0.015     6.8509     61.565     36.778  26.191021     0.7077      8.143   313.6838 7.7370e-01     3.9854      6.039      8.760    10.7082   999.6802 0.0000e+00
      6.162      0.013     6.8405     61.462     36.794  26.197829     0.7048      8.143   313.1682 7.8548e-01     3.9821      6.045      8.768    10.6888   999.6821 0.0000e+00
      6.163      0.010     6.8331     61.394     36.805  26.204748     0.6973      8.143   313.2237 7.9793e-01     4.0446      6.043      8.764    10.6484   999.6860 0.0000e+00
      6.163      0.007     6.8287     61.354     36.815  26.211229     0.6872      8.142   313.6666 8.0035e-01     4.1836      6.043      8.765    10.6172   999.6890 0.0000e+00
      6.163      0.005     6.8273     61.339     36.818  26.212756     0.6786      8.140   313.8769 7.9035e-01     4.2536      6.045      8.767    10.6004   999.6906 0.0000e+00
      6.164      0.005     6.8303     61.363     36.836  26.223209     0.6704      8.138   313.9600 7.7891e-01     4.2366      6.044      8.765    10.5961   999.6911 0.0000e+00
      6.166      0.006     6.8374     61.423     36.822  26.210727     0.6662      8.137   314.0692 7.7503e-01     4.2395      6.046      8.769    10.5983   999.6909 0.0000e+00
      6.169      0.008     6.8482     61.518     36.792  26.188707     0.6713      8.136   314.1642 7.8179e-01     4.2894      6.050      8.777    10.5964   999.6911 0.0000e+00
      6.170      0.009     6.8596     61.622     36.822  26.210737     0.6804      8.134   314.3350 7.9028e-01     4.3147      6.051      8.776    10.5954   999.6911 0.0000e+00
      6.171      0.009     6.8660     61.686     36.835  26.223331     0.6716      8.132   314.4989 7.8353e-01     4.2830      6.050      8.775    10.5932   999.6914 0.0000e+00
      6.174      0.008     6.8684     61.722     36.811  26.214094     0.6610      8.131   314.5971 7.5982e-01     4.2340      6.055      8.782    10.5887   999.6919 0.0000e+00
      6.179      0.006     6.8706     61.762     36.812  26.225940     0.6819      8.130   314.7484 7.4554e-01     4.1487      6.061      8.791    10.5878   999.6919 0.0000e+00
      6.179      0.005     6.8708     61.782     36.819  26.239696     0.7078      8.130   314.9516 7.5782e-01     4.0379      6.060      8.790    10.5883   999.6919 0.0000e+00
      6.179      0.004     6.8680     61.770     36.830  26.253540     0.7140      8.129   315.0746 7.7848e-01     3.9756      6.060      8.788    10.5912   999.6916 0.0000e+00
      6.180      0.002     6.8635     61.741     36.840  26.266448     0.7136      8.127   315.2035 7.8763e-01     3.9531      6.062      8.791    10.6020   999.6906 0.0000e+00
      6.180      0.000     6.8605     61.722     36.837  26.268879     0.7113      8.125   315.5638 7.7988e-01     3.8969      6.061      8.790    10.6199   999.6889 0.0000e+00
      6.180 2.4217e-08     6.8600     61.722     36.853  26.282940     0.7128      8.124   315.9894 7.6990e-01     3.8206      6.060      8.789    10.6333   999.6875 0.0000e+00
      6.180 2.6639e-07     6.8578     61.715     36.881  26.309584     0.7136      8.123   316.2190 7.7108e-01     3.7837      6.061      8.791    10.6390   999.6870 0.0000e+00
      6.179 3.0365e-07     6.8523     61.695     36.898  26.337257     0.7126      8.121   316.3612 7.8042e-01     3.7460      6.060      8.790    10.6480   999.6861 0.0000e+00
      6.179 4.7466e-07     6.8448     61.661     36.911  26.363787     0.7091      8.120   316.5899 7.8527e-01     3.7254      6.060      8.789    10.6559   999.6854 0.0000e+00
      6.180      0.000     6.8355     61.602     36.911  26.376598     0.6891      8.119   316.8343 7.8207e-01     3.7637      6.061      8.791    10.6541   999.6856 0.0000e+00
      6.180      0.000     6.8243     61.516     36.885  26.365282     0.6703      8.118   316.8204 7.8957e-01     3.7835      6.061      8.791    10.6596   999.6851 0.0000e+00
      6.180      0.001     6.8123     61.412     36.866  26.353853     0.6640      8.117   316.6801 7.9451e-01     3.7682      6.061      8.790    10.6852   999.6826 0.0000e+00
      6.180      0.002     6.7984     61.281     36.887  26.365305     0.6644      8.115   316.7726 7.8037e-01     3.7425      6.061      8.790    10.7134   999.6798 0.0000e+00
      6.180      0.003     6.7833     61.131     36.912  26.376850     0.6926      8.114   316.9925 7.6746e-01     3.7343      6.061      8.790    10.7293   999.6783 0.0000e+00
      6.180      0.004     6.7704     61.005     36.906  26.366554     0.7441      8.113   317.4456 7.7261e-01     3.7670      6.061      8.791    10.7395   999.6773 0.0000e+00
      6.182      0.005     6.7592     60.905     36.906  26.367697     0.7679      8.112   318.0360 7.8405e-01     3.7779      6.061      8.791    10.7427   999.6769 0.0000e+00
      6.185      0.005     6.7512     60.845     36.929  26.390671     0.7629      8.112   318.2799 7.7655e-01     3.7679      6.065      8.796    10.7372   999.6775 0.0000e+00
      6.188      0.005     6.7472     60.821     36.921  26.390566     0.7706      8.111   317.6409 7.7434e-01     3.7783      6.069      8.801    10.7274   999.6785 0.0000e+00
      6.189      0.004     6.7426     60.788     36.881  26.366437     0.7829      8.109   316.5046 7.7763e-01     3.7722      6.069      8.802    10.7153   999.6796 0.0000e+00
      6.189      0.003     6.7376     60.756     36.852  26.352706     0.7814      8.108   316.2429 7.6031e-01     3.7591      6.068      8.801    10.7161   999.6796 0.0000e+00
      6.189      0.001     6.7354     60.751     36.839  26.351444     0.7791      8.107   316.9719 7.5524e-01     3.7509      6.069      8.803    10.7302   999.6782 0.0000e+00
      6.188      0.001     6.7348     60.760     36.829  26.351189     0.7721      8.106   317.9185 7.6732e-01     3.8042      6.069      8.802    10.7382   999.6774 0.0000e+00
      6.188      0.003     6.7349     60.763     36.824  26.349627     0.7493      8.105   318.4825 7.7752e-01     3.9457      6.068      8.801    10.7413   999.6771 0.0000e+00
      6.189      0.008     6.7365     60.760     36.814  26.332555     0.7293      8.104   318.6289 7.7683e-01     4.0189      6.069      8.802    10.7523   999.6760 0.0000e+00
      6.190      0.018     6.7378     60.735     36.756  26.271649     0.7213      8.104   318.2258 7.7006e-01     4.0005      6.069      8.803    10.7634   999.6749 0.0000e+00
      6.192      0.034     6.7388     60.691     36.672  26.184174     0.7302      8.103   317.3943 7.7313e-01     3.9864      6.071      8.805    10.7748   999.6738 0.0000e+00
      6.198      0.058     6.7425     60.661     36.600  26.099625     0.7577      8.101   317.0069 7.7121e-01     4.0114      6.075      8.811    10.7820   999.6732 0.0000e+00
      6.210      0.083     6.7464     60.632     36.521  26.010647     0.7770      8.098   317.0695 7.4171e-01     4.0410      6.086      8.827    10.7665   999.6748 0.0000e+00
      6.235      0.108     6.7472     60.590     36.447  25.933052     0.7806      8.096   317.2047 7.0016e-01     4.0166      6.110      8.861    10.7388   999.6775 0.0000e+00
      6.273      0.128     6.7483     60.570     36.364  25.859270     0.7674      8.096   317.6091 6.6717e-01     3.9784      6.149      8.918    10.7015   999.6813 0.0000e+00
      6.318      0.141     6.7557     60.611     36.233  25.752960     0.7393      8.095   318.2600 6.3126e-01     3.9734      6.198      8.988    10.6530   999.6863 0.0000e+00
      6.361      0.145     6.7715     60.721     36.129  25.662699     0.7267      8.094   318.3638 6.0166e-01     3.9877      6.240      9.050    10.6041   999.6912 0.0000e+00
      6.400      0.140     6.7964     60.907     36.147  25.656081     0.7279      8.092   317.7453 5.8782e-01     3.9882      6.278      9.105    10.5673   999.6948 0.0000e+00
      6.435      0.127     6.8304     61.182     36.192  25.672924     0.7193      8.092   317.2353 5.7385e-01     3.9464      6.313      9.156    10.5523   999.6964 0.0000e+00
      6.465      0.112     6.8727     61.545     36.117  25.612572     0.6999      8.091   317.1870 5.5421e-01     3.8096      6.341      9.197    10.5383   999.6978 0.0000e+00
      6.492      0.101     6.9229     61.988     35.959  25.497319     0.6848      8.089   317.3340 5.3701e-01     3.6123      6.367      9.236    10.5141   999.7001 0.0000e+00
      6.514      0.095     6.9824     62.505     35.863  25.421343     0.6837      8.089   317.4633 5.2791e-01     3.4952      6.391      9.269    10.4838   999.7031 0.0000e+00
      6.530      0.095     7.0499     63.072     35.847  25.391788     0.6864      8.089   317.5463 5.2111e-01     3.4752      6.404      9.288    10.4605   999.7054 0.0000e+00
      6.548      0.099     7.1157     63.618     35.878  25.393703     0.6824      8.089   318.1649 5.1406e-01     3.4357      6.416      9.307    10.4524   999.7062 0.0000e+00
      6.575      0.106     7.1711     64.082     35.972  25.444477     0.6795      8.088   319.0928 5.0888e-01     3.3448      6.445      9.348    10.4529   999.7063 0.0000e+00
      6.609      0.114     7.2137     64.443     36.062  25.498153     0.6857      8.087   319.2145 4.9451e-01     3.2942      6.482      9.402    10.4465   999.7070 0.0000e+00
      6.642      0.119     7.2450     64.711     36.122  25.535158     0.6873      8.087   319.0348 4.6790e-01     3.2830      6.515      9.449    10.4155   999.7101 0.0000e+00
      6.675      0.121     7.2649     64.881     36.183  25.574699     0.6652      8.087   318.8980 4.4767e-01     3.2422      6.545      9.491    10.3822   999.7134 0.0000e+00
      6.707      0.118     7.2710     64.931     36.216  25.595597     0.6344      8.086   318.4206 4.4013e-01     3.1608      6.580      9.543    10.3615   999.7154 0.0000e+00
      6.736      0.113     7.2647     64.872     36.221  25.597508     0.6179      8.085   318.1676 4.2507e-01     3.0860      6.609      9.587    10.3489   999.7168 0.0000e+00
      6.761      0.103     7.2467     64.707     36.223  25.597806     0.6129      8.084   319.1936 3.9564e-01     3.0590      6.628      9.614    10.3426   999.7175 0.0000e+00
      6.788      0.092     7.2149     64.419     36.227  25.599194     0.6008      8.083   321.0180 3.7144e-01     3.0627      6.655      9.652    10.3380   999.7181 0.0000e+00
      6.817      0.083     7.1735     64.049     36.249  25.614294     0.5749      8.083   321.8136 3.6087e-01     3.0660      6.689      9.702    10.3349   999.7185 0.0000e+00
      6.838      0.080     7.1269     63.633     36.304  25.653489     0.5607      8.082   321.3277 3.6507e-01     3.0659      6.711      9.734    10.3327   999.7188 0.0000e+00
      6.847      0.082     7.0739     63.159     36.360  25.692461     0.5591      8.082   320.4779 3.7249e-01     3.0617      6.714      9.738    10.3307   999.7190 0.0000e+00
      6.857      0.086     7.0200     62.676     36.380  25.704852     0.5816      8.081   320.2291 3.6887e-01     3.1130      6.719      9.744    10.3290   999.7192 0.0000e+00
      6.879      0.092     6.9730     62.253     36.341  25.676425     0.6341      8.079   321.1583 3.5528e-01     3.2279      6.742      9.779    10.3285   999.7194 0.0000e+00
      6.912      0.102     6.9340     61.901     36.239  25.602519     0.6645      8.077   322.6786 3.4019e-01     3.3034      6.779      9.833    10.3286   999.7196 0.0000e+00
      6.945      0.113     6.9025     61.616     36.110  25.509102     0.6723      8.077   323.6410 3.2009e-01     3.3379      6.814      9.882    10.3277   999.7198 0.0000e+00
      6.974      0.120     6.8752     61.367     36.009  25.435083     0.6846      8.077   323.8455 3.0088e-01     3.3167      6.839      9.919    10.3266   999.7201 0.0000e+00
      7.003      0.120     6.8481     61.120     35.970  25.405404     0.6562      8.076   323.6031 2.9979e-01     3.1127      6.865      9.956    10.3254   999.7203 0.0000e+00
      7.036      0.116     6.8246     60.907     35.970  25.404006     0.5897      8.074   323.1192 2.9292e-01     2.8054      6.900     10.008    10.3225   999.7207 0.0000e+00
      7.068      0.110     6.8101     60.776     35.992  25.418182     0.5568      8.072   322.8122 2.8603e-01     2.6488      6.935     10.058    10.3187   999.7212 0.0000e+00
      7.096      0.100     6.8028     60.708     36.038  25.449931     0.5533      8.072   322.6454 2.8834e-01     2.6283      6.959     10.095    10.3153   999.7215 0.0000e+00
      7.121      0.090     6.8025     60.705     36.068  25.470672     0.5651      8.072   322.4789 2.7826e-01     2.6230      6.983     10.128    10.3119   999.7220 0.0000e+00
      7.145      0.081     6.8127     60.798     36.078  25.478643     0.5951      8.071   322.6916 2.7015e-01     2.6179      7.010     10.166    10.3095   999.7223 0.0000e+00
      7.161      0.077     6.8337     60.984     36.085  25.482858     0.6210      8.070   323.1526 2.6190e-01     2.6322      7.027     10.191    10.3085   999.7225 0.0000e+00
      7.171      0.076     6.8632     61.242     36.054  25.458193     0.6271      8.070   323.3196 2.5210e-01     2.6647      7.029     10.196    10.3056   999.7228 0.0000e+00
      7.186      0.077     6.8980     61.547     36.024  25.434181     0.5999      8.070   323.3343 2.5481e-01     2.7158      7.041     10.213    10.3055   999.7229 0.0000e+00
      7.212      0.081     6.9312     61.840     36.044  25.446293     0.5602      8.069   323.3302 2.5961e-01     2.7914      7.072     10.258    10.3098   999.7227 0.0000e+00
      7.239      0.087     6.9561     62.060     36.089  25.477761     0.5462      8.069   322.9264 2.5833e-01     2.8570      7.101     10.301    10.3084   999.7229 0.0000e+00
      7.261      0.093     6.9727     62.206     36.119  25.497448     0.5519      8.067   322.3244 2.4774e-01     2.8873      7.119     10.326    10.3022   999.7235 0.0000e+00
      7.282      0.095     6.9800     62.269     36.116  25.494003     0.5505      8.066   322.1594 2.2806e-01     2.8620      7.138     10.354    10.2980   999.7240 0.0000e+00
      7.307      0.095     6.9744     62.218     36.125  25.499553     0.5390      8.066   322.2224 2.1749e-01     2.8142      7.166     10.393    10.2964   999.7243 0.0000e+00
      7.332      0.094     6.9594     62.086     36.126  25.501108     0.5340      8.064   322.2252 2.2205e-01     2.8002      7.190     10.429    10.2958   999.7245 0.0000e+00
      7.358      0.093     6.9414     61.927     36.141  25.512801     0.5414      8.063   322.4508 2.1898e-01     2.8246      7.214     10.464    10.2943   999.7248 0.0000e+00
      7.385      0.093     6.9233     61.764     36.234  25.577496     0.5509      8.063   322.8002 2.0888e-01     2.8798      7.244     10.506    10.2914   999.7251 0.0000e+00
      7.407      0.094     6.9062     61.606     36.339  25.648925     0.5532      8.062   322.3200 2.0568e-01     2.9754      7.267     10.540    10.2907   999.7253 0.0000e+00
      7.425      0.096     6.8917     61.468     36.387  25.678592     0.5519      8.061   321.2904 1.9527e-01     3.0629      7.279     10.558    10.2922   999.7252 0.0000e+00
      7.446      0.098     6.8802     61.358     36.398  25.682423     0.5522      8.060   321.0200 1.8363e-01     3.0854      7.298     10.586    10.2939   999.7252 0.0000e+00
      7.475      0.099     6.8708     61.269     36.419  25.695251     0.5492      8.059   321.2885 1.9310e-01     3.0835      7.330     10.632    10.2944   999.7253 0.0000e+00
      7.506      0.100     6.8631     61.198     36.438  25.706807     0.5414      8.057   321.5247 1.8985e-01     3.0410      7.362     10.678    10.2899   999.7259 0.0000e+00
      7.534      0.100     6.8546     61.119     36.423  25.695266     0.5449      8.055   321.8114 1.6058e-01     2.9312      7.389     10.717    10.2829   999.7267 0.0000e+00
      7.559      0.098     6.8427     61.011     36.407  25.682589     0.5561      8.054   322.0879 1.5182e-01     2.8704      7.413     10.752    10.2780   999.7273 0.0000e+00
      7.582      0.094     6.8272     60.870     36.406  25.680408     0.5550      8.053   321.9417 1.6029e-01     2.8954      7.436     10.784    10.2749   999.7277 0.0000e+00
      7.604      0.089     6.8080     60.696     36.392  25.668885     0.5500      8.052   321.5068 1.5446e-01     2.9055      7.457     10.815    10.2722   999.7280 0.0000e+00
      7.625      0.084     6.7885     60.518     36.396  25.670145     0.5477      8.051   321.3036 1.4526e-01     2.8625      7.477     10.845    10.2702   999.7283 0.0000e+00
      7.647      0.077     6.7695     60.346     36.435  25.695647     0.5532      8.050   321.2913 1.4454e-01     2.8336      7.499     10.875    10.2692   999.7285 0.0000e+00
      7.670      0.071     6.7515     60.183     36.476  25.723465     0.5644      8.049   321.4443 1.4188e-01     2.8509      7.523     10.911    10.2675   999.7288 0.0000e+00
      7.689      0.069     6.7359     60.043     36.518  25.752724     0.5616      8.048   321.7771 1.3653e-01     2.9080      7.545     10.944    10.2647   999.7291 0.0000e+00
      7.700      0.071     6.7249     59.943     36.580  25.795648     0.5544      8.047   322.0463 1.3595e-01     3.0002      7.553     10.955    10.2621   999.7294 0.0000e+00
      7.710      0.076     6.7240     59.933     36.676  25.861805     0.5554      8.046   322.2038 1.3664e-01     3.0803      7.557     10.961    10.2601   999.7296 0.0000e+00
      7.726      0.081     6.7283     59.969     36.758  25.918209     0.5555      8.045   322.3053 1.3368e-01     3.1228      7.573     10.983    10.2588   999.7298 0.0000e+00
      7.752      0.086     6.7276     59.960     36.833  25.970088     0.5384      8.044   322.3268 1.2877e-01     3.1210      7.601     11.024    10.2579   999.7301 0.0000e+00
      7.784      0.091     6.7241     59.927     36.941  26.044974     0.5043      8.044   322.3770 1.2496e-01     3.0911      7.635     11.073    10.2566   999.7303 0.0000e+00
      7.814      0.093     6.7201     59.889     37.147  26.189235     0.4814      8.042   322.5680 1.2365e-01     3.0898      7.666     11.119    10.2550   999.7307 0.0000e+00
      7.836      0.091     6.7124     59.819     37.782  26.635810     0.4785      8.040   322.8296 1.2353e-01     3.1052      7.686     11.149    10.2529   999.7310 0.0000e+00
      7.853      0.087     6.6985     59.694     38.933  27.447511     0.4959      8.039   323.0444 1.2359e-01     3.0798      7.701     11.169    10.2511   999.7312 0.0000e+00
      7.871      0.083     6.6775     59.512     39.907  28.136215     0.5261      8.037   323.0149 1.2400e-01     3.0449      7.717     11.192    10.2503   999.7315 0.0000e+00
      7.891      0.079     6.6502     59.277     40.224  28.364402     0.5404      8.035   322.8160 1.2782e-01     3.0438      7.737     11.222    10.2486   999.7317 0.0000e+00
      7.915      0.076     6.6141     58.962     40.310  28.429963     0.5394      8.033   322.8770 1.3130e-01     3.0663      7.762     11.257    10.2466   999.7322 0.0000e+00
      7.939      0.074     6.5536     58.429     40.653  28.675124     0.5390      8.029   323.0645 1.2780e-01     3.0871      7.786     11.293    10.2457   999.7329 0.0000e+00
      7.959      0.074     6.4480     57.491     41.264  29.107860     0.5364      8.025   323.1035 1.2398e-01     3.1322      7.807     11.324    10.2486   999.7332 0.0000e+00
      7.972      0.074     6.2899     56.083     41.782  29.474368     0.5337      8.022   323.2634 1.2364e-01     3.2187      7.818     11.340    10.2556   999.7326 0.0000e+00
      7.983      0.074     6.0833     54.243     41.982  29.616696     0.5319      8.020   323.2768 1.2363e-01     3.2471      7.824     11.348    10.2621   999.7320 0.0000e+00
      8.002      0.074     5.8403     52.078     42.079  29.686596     0.5321      8.019   322.9214 1.2362e-01     3.2467      7.845     11.378    10.2663   999.7318 0.0000e+00
      8.028      0.077     5.5795     49.753     42.526  30.002253     0.5277      8.017   322.7514 1.2357e-01     3.2471      7.876     11.422    10.2687   999.7321 0.0000e+00
      8.051      0.083     5.3116     47.365     43.251  30.514341     0.5128      8.013   322.7707 1.2355e-01     3.1527      7.898     11.455    10.2691   999.7323 0.0000e+00
      8.067      0.088     5.0472     45.008     43.568  30.738343     0.5006      8.009   322.9822 1.2353e-01     3.0565      7.910     11.473    10.2702   999.7323 0.0000e+00
      8.087      0.090     4.8043     42.841     43.487  30.680086     0.4921      8.006   323.5882 1.2352e-01     3.0667      7.927     11.497    10.2722   999.7322 0.0000e+00
      8.112      0.090     4.5919     40.946     43.513  30.698354     0.5052      8.003   324.1610 1.2357e-01     3.1456      7.955     11.538    10.2732   999.7323 0.0000e+00
      8.139      0.090     4.4008     39.242     43.704  30.832306     0.5383      8.000   324.0580 1.2362e-01     3.2227      7.983     11.578    10.2736   999.7329 0.0000e+00
      8.165      0.090     4.2227     37.653     43.806  30.903635     0.5538      7.997   323.4607 1.2362e-01     3.2785      8.008     11.613    10.2737   999.7331 0.0000e+00
      8.189      0.088     4.0632     36.229     43.570  30.735841     0.5542      7.993   323.1340 1.2356e-01     3.3620      8.031     11.648    10.2734   999.7330 0.0000e+00
      8.210      0.088     3.9270     35.012     42.903  30.263024     0.5605      7.989   323.2054 1.2350e-01     3.5115      8.052     11.678    10.2725   999.7332 0.0000e+00
      8.228      0.092     3.8155     34.014     41.829  29.501819     0.5601      7.985   323.4641 1.2354e-01     3.6760      8.069     11.703    10.2714   999.7335 0.0000e+00
      8.246      0.099     3.7291     33.237     40.707  28.702420     0.5491      7.983   323.7665 1.2360e-01     3.7455      8.084     11.725    10.2704   999.7337 0.0000e+00
      8.269      0.106     3.6638     32.644     40.118  28.275225     0.5489      7.981   324.1935 1.2357e-01     3.7947      8.106     11.756    10.2695   999.7339 0.0000e+00
      8.300      0.110     3.6236     32.273     39.950  28.143659     0.5499      7.979   324.8418 1.2353e-01     4.4674      8.137     11.802    10.2678   999.7339 0.0000e+00
      8.338      0.111     3.6266     32.289     39.672  27.936487     0.5519      7.978   325.4098 1.2354e-01     5.7177      8.177     11.860    10.2634   999.7342 0.0000e+00
      8.374      0.110     3.6884     32.832     39.220  27.610305     0.5562      7.978   325.5553 1.2358e-01     6.3928      8.216     11.917    10.2540   999.7347 0.0000e+00
      8.401      0.106     3.8146     33.947     38.800  27.308733     0.5406      7.978   325.2242 1.2358e-01     6.4366      8.243     11.956    10.2391   999.7359 0.0000e+00
      8.418      0.099     4.0008     35.596     38.580  27.145293     0.5286      7.978   324.7624 1.2357e-01     6.5100      8.254     11.972    10.2206   999.7378 0.0000e+00
      8.437      0.090     4.2323     37.645     38.519  27.093410     0.5234      7.978   324.6174 1.2365e-01     7.3123      8.269     11.993    10.2052   999.7391 0.0000e+00
      8.463      0.084     4.4923     39.950     38.484  27.062087     0.5046      7.978   325.4496 1.2372e-01     8.7637      8.299     12.038    10.1971   999.7398 0.0000e+00
      8.490      0.083     4.7610     42.334     38.521  27.083791     0.4919      7.977   326.8227 1.2372e-01     9.5728      8.329     12.081    10.1897   999.7405 0.0000e+00
      8.510      0.083     5.0165     44.601     38.642  27.165488     0.4917      7.976   327.1954 1.2367e-01     9.6228      8.347     12.106    10.1780   999.7415 0.0000e+00
      8.525      0.083     5.2428     46.609     38.732  27.225080     0.5104      7.977   326.5144 1.2362e-01     9.3363      8.359     12.124    10.1658   999.7426 0.0000e+00
      8.544      0.080     5.4288     48.258     38.747  27.233304     0.5447      7.977   325.4715 1.2358e-01     8.8291      8.376     12.148    10.1573   999.7435 0.0000e+00
      8.567      0.079     5.5699     49.510     38.793  27.264917     0.5587      7.976   324.6529 1.2360e-01     8.5367      8.402     12.185    10.1520   999.7441 0.0000e+00
      8.591      0.080     5.6711     50.412     38.918  27.353527     0.5502      7.976   324.1878 1.2367e-01     8.4880      8.428     12.223    10.1479   999.7447 0.0000e+00
      8.611      0.080     5.7352     50.985     39.004  27.416438     0.5278      7.975   324.9253 1.2372e-01     8.3717      8.446     12.250    10.1432   999.7452 0.0000e+00
      8.629      0.076     5.7633     51.237     39.057  27.454556     0.5048      7.973   326.7722 1.2369e-01     8.1795      8.460     12.270    10.1393   999.7456 0.0000e+00
      8.650      0.071     5.7640     51.244     39.207  27.560628     0.4982      7.972   327.5033 1.2358e-01     8.0648      8.481     12.301    10.1373   999.7459 0.0000e+00
      8.670      0.068     5.7433     51.059     39.473  27.747240     0.4909      7.971   327.4846 1.2346e-01     8.0334      8.506     12.337    10.1401   999.7459 0.0000e+00
      8.685      0.068     5.7062     50.723     39.656  27.870893     0.4866      7.970   327.2350 1.2346e-01     8.1273      8.518     12.355    10.1448   999.7456 0.0000e+00
      8.697      0.066     5.6594     50.297     39.636  27.850209     0.4979      7.970   326.4635 1.2352e-01     8.2826      8.525     12.366    10.1439   999.7457 0.0000e+00
      8.713      0.064     5.6068     49.820     39.593  27.814386     0.5063      7.969   326.8470 1.2356e-01     8.3377      8.542     12.390    10.1462   999.7456 0.0000e+00
      8.733      0.064     5.5499     49.309     39.695  27.881881     0.5011      7.968   328.4301 1.2362e-01     8.3355      8.565     12.423    10.1480   999.7457 0.0000e+00
      8.752      0.069     5.4860     48.739     40.001  28.095252     0.4874      7.965   329.3438 1.2363e-01     8.2889      8.585     12.451    10.1396   999.7465 0.0000e+00
      8.766      0.074     5.4138     48.096     40.475  28.427333     0.4792      7.963   329.4622 1.2357e-01     8.1997      8.598     12.470    10.1295   999.7475 0.0000e+00
      8.780      0.076     5.3383     47.422     40.812  28.661143     0.4890      7.962   329.2591 1.2354e-01     8.1419      8.608     12.484    10.1218   999.7482 0.0000e+00
      8.800      0.075     5.2640     46.756     40.875  28.701492     0.5015      7.961   328.7812 1.2359e-01     8.0823      8.626     12.511    10.1169   999.7488 0.0000e+00
      8.828      0.073     5.1897     46.091     41.184  28.915185     0.5005      7.960   328.5026 1.2364e-01     8.0023      8.657     12.556    10.1158   999.7491 0.0000e+00
      8.853      0.071     5.1098     45.379     41.975  29.468234     0.4933      7.959   328.2996 1.2366e-01     7.6336      8.686     12.598    10.1154   999.7495 0.0000e+00
      8.868      0.069     5.0176     44.559     42.727  29.994927     0.4926      7.958   328.2186 1.2369e-01     6.9668      8.699     12.618    10.1117   999.7501 0.0000e+00
      8.878      0.065     4.9093     43.596     43.392  30.460951     0.5006      7.957   328.7281 1.2372e-01     6.5933      8.704     12.624    10.1059   999.7505 0.0000e+00
      8.891      0.064     4.7909     42.545     44.492  31.232116     0.5039      7.955   329.4691 1.2369e-01     6.4934      8.716     12.642    10.1015   999.7510 0.0000e+00
      8.908      0.069     4.6620     41.401     46.159  32.402117     0.4980      7.951   329.9516 1.2362e-01     6.1849      8.738     12.673    10.0990   999.7517 0.0000e+00
      8.925      0.079     4.5148     40.091     47.728  33.501706     0.4980      7.946   330.0015 1.2358e-01     5.6815      8.753     12.694    10.0977   999.7522 0.0000e+00
      8.943      0.085     4.3488     38.613     48.252  33.865327     0.5044      7.942   328.9541 1.2361e-01     5.3888      8.765     12.713    10.0969   999.7524 0.0000e+00
      8.970      0.086     4.1662     36.988     48.459  34.006208     0.5063      7.939   327.3536 1.2363e-01     5.3649      8.793     12.754    10.0964   999.7530 0.0000e+00
      9.003      0.086     3.9689     35.234     50.080  35.141561     0.4950      7.935   326.9985 1.2353e-01     5.3601      8.832     12.809    10.0965   999.7538 0.0000e+00
      9.028      0.087     3.7514     33.303     52.630  36.929659     0.4805      7.929   327.8436 1.2342e-01     5.3313      8.860     12.850    10.0952   999.7548 0.0000e+00
      9.042      0.087     3.5012     31.080     54.585  38.297798     0.4873      7.924   328.7096 1.2347e-01     5.3440      8.868     12.861    10.0901   999.7554 0.0000e+00
      9.054      0.084     3.2123     28.513     55.667  39.051650     0.4993      7.920   328.0054 1.2361e-01     5.3828      8.874     12.869    10.0840   999.7556 0.0000e+00
      9.076      0.078     2.8967     25.708     55.960  39.251912     0.4951      7.916   326.2975 1.2365e-01     5.4724      8.898     12.905    10.0821   999.7566 0.0000e+00
      9.105      0.073     2.5675     22.785     56.336  39.512992     0.4880      7.912   325.9560 1.2360e-01     5.6416      8.931     12.954    10.0825   999.7579 0.0000e+00
      9.130      0.070     2.2167     19.671     57.918  40.621153     0.4911      7.908   326.7150 1.2357e-01     5.7562      8.957     12.992    10.0798   999.7588 0.0000e+00
      9.146      0.068     1.8384     16.314     59.953  42.048199     0.4976      7.902   327.3875 1.2357e-01     5.7769      8.973     13.014    10.0734   999.7600 0.0000e+00
      9.154      0.063     1.4429     12.804     60.936  42.736074     0.4975      7.895   327.5485 1.2359e-01     5.7940      8.978     13.021    10.0682   999.7605 0.0000e+00
      9.163      0.057     1.0565      9.374     60.549  42.462018     0.4902      7.890   327.3709 1.2363e-01     5.8321      8.981     13.027    10.0659   999.7604 0.0000e+00
      9.179      0.053     0.7127      6.323     60.307  42.290226     0.4792      7.885   327.2190 1.2363e-01     5.8446      8.999     13.053    10.0652   999.7614 0.0000e+00
      9.201      0.053     0.4199      3.726     61.241  42.944662     0.4765      7.879   327.0884 1.2359e-01     5.8141      9.026     13.092    10.0656   999.7624 0.0000e+00
      9.217      0.058     0.1710      1.518     62.512  43.834841     0.4840      7.872   327.2544 1.2364e-01     5.7904      9.044     13.116    10.0647   999.7630 0.0000e+00
      9.223      0.064    -0.0322     -0.286     63.716  44.671836     0.4919      7.865   328.2795 1.2374e-01     5.8854      9.044     13.117    10.0615   999.7629 0.0000e+00
      9.231      0.067    -0.1812     -1.607     64.925  45.508246     0.4943      7.858   329.7600 1.2370e-01     6.0783      9.047     13.121    10.0590   999.7628 0.0000e+00
      9.251      0.072    -0.2709     -2.402     66.110  46.327576     0.4867      7.851   330.7010 1.2360e-01     6.1883      9.070     13.154    10.0602   999.7634 0.0000e+00
      9.278      0.079    -0.3104     -2.752     67.294  47.148233     0.4782      7.843   330.8815 1.2356e-01     6.2658      9.102     13.201    10.0604   999.7640 0.0000e+00
      9.303      0.087    -0.3176     -2.815     68.432  47.936888     0.4780      7.836   330.6519 1.2356e-01     6.6550      9.125     13.235    10.0545   999.7651 0.0000e+00
      9.323      0.090    -0.3112     -2.758     69.516  48.686540     0.4842      7.828   330.9363 1.2363e-01     7.2889      9.141     13.258    10.0442   999.7665 0.0000e+00
      9.345      0.087    -0.2937     -2.603     70.481  49.352894     0.4926      7.821   331.5667 1.2372e-01     7.6376      9.163     13.289    10.0351   999.7678 0.0000e+00
      9.370      0.082    -0.2607     -2.309     71.176  49.832829     0.4923      7.814   331.4765 1.2367e-01     7.6923      9.190     13.329    10.0290   999.7688 0.0000e+00
      9.392      0.075    -0.2194     -1.944     71.480  50.043280     0.4889      7.809   330.7916 1.2357e-01     7.9177      9.213     13.362    10.0231   999.7699 0.0000e+00
      9.412      0.066    -0.1769     -1.568     71.497  50.055446     0.4950      7.805   329.7388 1.2357e-01     8.3312      9.230     13.387    10.0153   999.7710 0.0000e+00
      9.429      0.054    -0.1396     -1.237     71.569  50.106964     0.4973      7.801   328.8996 1.2359e-01     8.5292      9.248     13.414    10.0075   999.7722 0.0000e+00
      9.442      0.042    -0.1067     -0.945     71.820  50.285072     0.4905      7.794   328.3024 1.2360e-01     8.5096      9.262     13.433    10.0033   999.7729 0.0000e+00
      9.449      0.032    -0.0720     -0.638     71.933  50.366914     0.4735      7.788   326.6482 1.2367e-01     8.4554      9.268     13.441    10.0024   999.7731 0.0000e+00
      9.452      0.024    -0.0359     -0.318     71.790  50.270769     0.4484      7.783   324.2142 1.2371e-01     8.3975      9.269     13.444    10.0026   999.7730 0.0000e+00
      9.455      0.019    -0.0035     -0.030     71.506  50.075378     0.4375      7.778   322.2761 1.2366e-01     8.3998      9.272     13.448    10.0035   999.7729 0.0000e+00
      9.459      0.016     0.0245      0.217     70.994  49.719448     0.4376      7.774   321.1103 1.2359e-01     8.4832      9.276     13.454    10.0047   999.7731 0.0000e+00
      9.464      0.016     0.0494      0.438     70.168  49.143086     0.4326      7.770   320.1000 1.2355e-01     9.4377      9.281     13.461    10.0068   999.7729 0.0000e+00
      9.469      0.016     0.0701      0.622     69.159  48.441928     0.4290      7.765   318.7501 1.2354e-01    11.2563      9.285     13.467    10.0096   999.7726 0.0000e+00
      9.473      0.016     0.0896      0.795     68.206  47.783718     0.4286      7.761   317.6096 1.2350e-01    12.2835      9.290     13.475    10.0125   999.7723 0.0000e+00
      9.477      0.015     0.1085      0.962     67.562  47.345357     0.4362      7.757   316.9788 1.2348e-01    12.4195      9.294     13.479    10.0143   999.7720 0.0000e+00
      9.481      0.013     0.1255      1.113     67.257  47.142893     0.5564      7.753   316.6298 1.2352e-01    12.6379      9.297     13.485    10.0153   999.7716 0.0000e+00
      9.484      0.011     0.1443      1.280     67.022  46.986993     0.7714      7.749   316.3998 1.2357e-01    13.0244      9.301     13.490    10.0183   999.7710 0.0000e+00
      9.487      0.009     0.1664      1.477     66.829  46.857565     0.8778      7.745   316.1777 1.2363e-01    13.2577      9.304     13.494    10.0261   999.7699 0.0000e+00
      9.489      0.007     0.1897      1.683     66.723  46.784649     0.8803      7.743   315.6645 1.2368e-01    13.2956      9.306     13.497    10.0364   999.7688 0.0000e+00
      9.490      0.005     0.2149      1.907     66.389  46.549923     0.8793      7.740   314.7554 1.2367e-01    13.2860      9.307     13.498    10.0446   999.7680 0.0000e+00
      9.491      0.004     0.2433      2.159     65.591  45.988217     0.8916      7.736   314.3059 1.2368e-01    13.1094      9.307     13.499    10.0517   999.7673 0.0000e+00
      9.492      0.003     0.2704      2.400     64.198  45.010024     0.9072      7.734   314.6176 1.2373e-01    12.7982      9.308     13.500    10.0563   999.7668 0.0000e+00
      9.492      0.002     0.2924      2.595     62.379  43.740015     0.8948      7.732   315.0823 1.2370e-01    12.6039      9.309     13.501    10.0571   999.7668 0.0000e+00
      9.492      0.002     0.3084      2.737     60.962  42.761061     0.8709      7.729   314.6763 1.2370e-01    12.5302      9.308     13.501    10.0565   999.7667 0.0000e+00
      9.493      0.002     0.3214      2.854     60.392  42.380683     0.8179      7.727   313.4938 1.2377e-01    12.3653      9.309     13.502    10.0546   999.7666 0.0000e+00
      9.493      0.002     0.3346      2.971     60.192  42.252171     0.7317      7.724   312.8304 1.2368e-01    12.0851      9.310     13.503    10.0514   999.7665 0.0000e+00
      9.494      0.002     0.3516      3.123     60.053  42.159647     0.6872      7.721   312.8507 1.2356e-01    11.9277      9.310     13.504    10.0536   999.7655 0.0000e+00
      9.494      0.002     0.3823      3.396     59.947  42.087393     0.6785      7.720   313.0507 1.2359e-01    11.9371      9.311     13.504    10.0684   999.7636 0.0000e+00
      9.495      0.002     0.4373      3.884     59.652  41.886498     0.6607      7.717   312.9260 1.2362e-01    12.3293      9.311     13.505    10.0883   999.7617 0.0000e+00
      9.496      0.002     0.5163      4.588     59.364  41.698897     0.6376      7.715   312.3749 1.2362e-01    13.0984      9.312     13.506    10.0989   999.7607 0.0000e+00
      9.497      0.002     0.6098      5.421     59.283  41.660405     0.6243      7.712   311.7214 1.2362e-01    13.5344      9.313     13.507    10.1001   999.7605 0.0000e+00
      9.497      0.003     0.7081      6.297     59.370  41.738572     0.6298      7.710   310.9619 1.2362e-01    13.7344      9.313     13.508    10.0999   999.7606 0.0000e+00
      9.497      0.003     0.8048      7.158     59.826  42.072592     0.7471      7.708   310.0755 1.2359e-01    15.7783      9.313     13.508    10.1038   999.7601 0.0000e+00
      9.498      0.002     0.8951      7.962     60.553  42.587905     0.9589      7.705   309.4356 1.2357e-01    19.5340      9.315     13.510    10.1181   999.7587 0.0000e+00
      9.499      0.002     0.9736      8.659     61.079  42.953215     1.0670      7.703   308.6457 1.2360e-01    21.6197      9.315     13.511    10.1354   999.7572 0.0000e+00
      9.500      0.002     1.0344      9.198     60.971  42.870337     1.0831      7.702   307.7517 1.2360e-01    22.1857      9.316     13.512    10.1492   999.7558 0.0000e+00
      9.500      0.002     1.0743      9.553     60.231  42.347762     1.1190      7.702   307.4879 1.2360e-01    26.1808      9.316     13.512    10.1640   999.7547 0.0000e+00
      9.500      0.002     1.0945      9.734     59.142  41.587323     1.1707      7.703   306.7468 1.2364e-01    33.4813      9.317     13.513    10.1669   999.7548 0.0000e+00
      9.501      0.002     1.1007      9.791     57.897  40.723538     1.1975      7.704   305.0724 1.2368e-01    37.4718      9.318     13.514    10.1592   999.7558 0.0000e+00
      9.501      0.002     1.0957      9.749     56.896  40.030472     1.2002      7.705   303.9345 1.2369e-01    37.8560      9.318     13.514    10.1528   999.7563 0.0000e+00
      9.502      0.002     1.0800      9.610     56.213  39.556309     1.2033      7.707   303.5715 1.2364e-01    37.9952      9.318     13.515    10.1496   999.7563 0.0000e+00
      9.502      0.002     1.0655      9.481     55.678  39.180500     1.2264      7.708   302.7475 1.2359e-01    38.9578      9.319     13.516    10.1552   999.7554 0.0000e+00
      9.503      0.001     1.0713      9.532     55.573  39.105195     1.2798      7.710   300.9411 1.2360e-01    40.7117      9.320     13.517    10.1662   999.7539 0.0000e+00
      9.503      0.001     1.1114      9.889     55.828  39.280638     1.3200      7.711   298.4224 1.2357e-01    41.6690      9.320     13.517    10.1783   999.7524 0.0000e+00
      9.503      0.002     1.1947     10.629     55.823  39.270284     1.3305      7.711   296.2133 1.2353e-01    41.7820      9.320     13.517    10.1839   999.7518 0.0000e+00
      9.504      0.002     1.3196     11.739     55.413  38.980003     1.3200      7.711   294.9664 1.2355e-01    42.1105      9.320     13.518    10.1817   999.7516 0.0000e+00
      9.504      0.003     1.4713     13.090     54.907  38.627613     1.2891      7.709   293.8423 1.2360e-01    42.7245      9.320     13.518    10.1827   999.7515 0.0000e+00
      9.505      0.004     1.6336     14.535     54.448  38.310650     1.2687      7.707   292.3441 1.2369e-01    43.0766      9.321     13.519    10.1793   999.7521 0.0000e+00
      9.506      0.005     1.7903     15.932     54.003  38.004283     1.2641      7.705   290.8767 1.2374e-01    43.1892      9.322     13.521    10.1693   999.7530 0.0000e+00
      9.509      0.006     1.9294     17.173     53.582  37.716486     1.2334      7.704   289.8663 1.2366e-01    43.9544      9.324     13.524    10.1671   999.7530 0.0000e+00
      9.511      0.006     2.0444     18.202     53.253  37.497062     1.1841      7.702   289.2484 1.2360e-01    45.2834      9.327     13.527    10.1728   999.7523 0.0000e+00
      9.512      0.006     2.1300     18.969     52.893  37.255617     1.1620      7.699   288.7404 1.2358e-01    45.9523      9.328     13.529    10.1786   999.7517 0.0000e+00
      9.513      0.005     2.1928     19.532     52.365  36.891962     1.1567      7.698   288.1119 1.2357e-01    45.9798      9.329     13.531    10.1839   999.7511 0.0000e+00
      9.514      0.005     2.2431     19.983     51.840  36.527876     1.1640      7.698   287.2416 1.2357e-01    46.1071      9.330     13.532    10.1917   999.7502 0.0000e+00
      9.515      0.004     2.2866     20.372     51.391  36.217702     1.1890      7.697   285.8750 1.2355e-01    46.3433      9.331     13.534    10.2039   999.7490 0.0000e+00
      9.517      0.003     2.3303     20.762     50.626  35.680670     1.2079      7.696   282.7734 1.2355e-01    46.4773      9.333     13.536    10.2168   999.7478 0.0000e+00
      9.518      0.002     2.3810     21.211     49.466  34.858558     1.2099      7.695   278.0473 1.2363e-01    46.5144      9.334     13.537    10.2243   999.7468 0.0000e+00
      9.518      0.002     2.4402     21.735     48.377  34.084529     1.2047      7.694   274.1617 1.2368e-01    46.9231      9.334     13.538    10.2282   999.7462 0.0000e+00
      9.518      0.001     2.5060     22.321     47.542  33.493939     1.2056      7.693   272.0155 1.2367e-01    47.7481      9.334     13.537    10.2357   999.7455 0.0000e+00
      9.518      0.001     2.5780     22.962     46.820  32.985494     1.2039      7.692   270.5957 1.2359e-01    48.1977      9.334     13.537    10.2409   999.7447 0.0000e+00
      9.518      0.001     2.6600     23.694     46.135  32.506412     1.2012      7.691   269.1263 1.2359e-01    48.2307      9.334     13.538    10.2330   999.7450 0.0000e+00
      9.518      0.001     2.7594     24.583     45.614  32.143819     1.1982      7.691   266.8111 1.2371e-01    48.2782      9.335     13.539    10.2239   999.7455 0.0000e+00
      9.518      0.001     2.8798     25.658     45.265  31.901454     1.1770      7.692   263.9402 1.2368e-01    48.4769      9.334     13.538    10.2218   999.7454 0.0000e+00
      9.519      0.001     3.0200     26.909     44.933  31.670199     1.1444      7.694   261.8608 1.2356e-01    48.7978      9.335     13.539    10.2221   999.7451 0.0000e+00
      9.519      0.001     3.1777     28.315     44.607  31.441925     1.1252      7.694   260.3403 1.2359e-01    48.9460      9.335     13.540    10.2266   999.7444 0.0000e+00
      9.519      0.000     3.3487     29.838     44.225  31.172115     1.1263      7.694   259.2353 1.2364e-01    48.9260      9.335     13.539    10.2323   999.7438 0.0000e+00
      9.519 1.8628e-08     3.5289     31.443     43.726  30.819356     1.1666      7.694   258.6528 1.2360e-01    48.7848      9.335     13.540    10.2369   999.7432 0.0000e+00
      9.519 2.0490e-07     3.7107     33.064     43.418  30.603443     1.2316      7.693   257.3413 1.2360e-01    48.5176      9.336     13.539    10.2401   999.7428 0.0000e+00
      9.519 2.0490e-07     3.8810     34.586     43.395  30.592166     1.2615      7.693   255.3385 1.2369e-01    48.3495      9.335     13.540    10.2407   999.7427 0.0000e+00
      9.519 1.8627e-08     4.0306     35.926     43.334  30.556102     1.2679      7.694   253.7959 1.2368e-01    48.2922      9.335     13.539    10.2400   999.7426 0.0000e+00
      9.519 1.6934e-09     4.1568     37.056     43.135  30.421227     1.2658      7.694   252.4569 1.2357e-01    48.1530      9.335     13.539    10.2377   999.7426 0.0000e+00
      9.519 1.5395e-10     4.2634     38.010     42.950  30.293981     1.2534      7.695   251.1074 1.2356e-01    47.9443      9.335     13.540    10.2380   999.7424 0.0000e+00
      9.519 1.3995e-11     4.3571     38.847     42.937  30.286694     1.2573      7.696   250.2132 1.2363e-01    47.8662      9.335     13.539    10.2461   999.7418 0.0000e+00
      9.520 1.2723e-12     4.4425     39.610     43.002  30.333119     1.2695      7.695   249.4744 1.2365e-01    47.8970      9.336     13.540    10.2553   999.7409 0.0000e+00
      9.520 1.1566e-13     4.5210     40.312     43.019  30.347664     1.2702      7.694   248.7133 1.2365e-01    47.9237      9.336     13.540    10.2613   999.7402 0.0000e+00
      9.519 1.0515e-14     4.5897     40.930     43.086  30.399101     1.2655      7.692   248.1520 1.2367e-01    47.9593      9.335     13.540    10.2650   999.7399 0.0000e+00
      9.519 9.5590e-16     4.6485     41.460     43.147  30.447405     1.2649      7.692   247.8510 1.2366e-01    48.0001      9.335     13.540    10.2660   999.7398 0.0000e+00
      9.520 8.6900e-17     4.6990     41.915     43.106  30.424069     1.2632      7.692   247.8275 1.2359e-01    48.0561      9.336     13.541    10.2661   999.7398 0.0000e+00
      9.520 7.9000e-18     4.7383     42.273     43.201  30.497688     1.2457      7.693   247.7814 1.2353e-01    48.1445      9.336     13.540    10.2692   999.7395 0.0000e+00
      9.520 7.1820e-19     4.7647     42.518     43.391  30.639498     1.2173      7.695   247.4651 1.2348e-01    48.2168      9.336     13.541    10.2749   999.7391 0.0000e+00
      9.520 6.5290e-20     4.7781     42.646     43.258  30.552291     1.2054      7.696   247.3598 1.2350e-01    48.2426      9.336     13.541    10.2815   999.7385 0.0000e+00
      9.520 5.9359e-21     4.7795     42.663     43.029  30.395125     1.2063      7.696   247.2823 1.2356e-01    48.2601      9.336     13.540    10.2862   999.7379 0.0000e+00
      9.520 5.4406e-22     4.7712     42.592     42.926  30.325632     1.2022      7.697   246.3554 1.2359e-01    48.2639      9.336     13.541    10.2928   999.7373 0.0000e+00
      9.520 9.8105e-23     4.7648     42.536     42.865  30.283147     1.1990      7.697   245.6169 1.2364e-01    48.2561      9.336     13.540    10.3048   999.7365 0.0000e+00
      9.520 -9.990e-29 -9.990e-29 -9.990e-29 -9.990e-29 -9.990e-29 -9.990e-29 -9.990e-29 -9.990e-29 1.2370e-01 -9.990e-29      9.336     13.540    10.3130   999.7356 0.0000e+00
      9.520 -9.990e-29 -9.990e-29 -9.990e-29 -9.990e-29 -9.990e-29 -9.990e-29 -9.990e-29 -9.990e-29 1.2368e-01 -9.990e-29      9.336     13.541    10.3179   999.7351 0.0000e+00
      9.520 -9.990e-29 -9.990e-29 -9.990e-29 -9.990e-29 -9.990e-29 -9.990e-29 -9.990e-29 -9.990e-29 1.2360e-01 -9.990e-29      9.336     13.541    10.3211   999.7348 0.0000e+00
      9.520 -9.990e-29 -9.990e-29 -9.990e-29 -9.990e-29 -9.990e-29 -9.990e-29 -9.990e-29 -9.990e-29 1.2355e-01 -9.990e-29      9.337     13.542    10.3212   999.7346 0.0000e+00
